Integration Time,200
Timestamp,2023-07-10 13_33_14.562000
Note,
Temperature,9.98
CCD C0,801.50982666
CCD C1,0.141540005803
CCD C2,-5.58820011065e-06
CCD C3,-8.47330028364e-09
CCD Offset,0
CCD Gain,NA
Laser Wavelength,785.0
Laser Enable,0
Laser Power,100
Laser Temperature,0.00
Pixel Count,1024

Wavenumber,Spectrum
262.40,-53.00
264.60,-42.00
266.80,-34.00
269.01,-31.00
271.21,-8.00
273.40,-29.00
275.60,4.00
277.80,9.00
280.00,17.00
282.19,82.00
284.38,85.00
286.58,125.00
288.77,184.00
290.96,297.00
293.15,391.00
295.34,567.00
297.53,708.00
299.72,928.00
301.90,1116.00
304.09,1506.00
306.27,2030.00
308.46,2466.00
310.64,3074.00
312.82,3642.00
315.00,4105.00
317.18,4621.00
319.36,4942.00
321.54,5215.00
323.72,5379.00
325.89,5395.00
328.07,5339.00
330.24,5236.00
332.42,5118.00
334.59,5076.00
336.76,4967.00
338.93,4944.00
341.10,4863.00
343.27,4849.00
345.43,4839.00
347.60,4857.00
349.77,4844.00
351.93,4973.00
354.09,5010.00
356.26,5072.00
358.42,5081.00
360.58,5150.00
362.74,5209.00
364.90,5241.00
367.06,5350.00
369.21,5425.00
371.37,5636.00
373.52,5715.00
375.68,5895.00
377.83,5929.00
379.98,5879.00
382.13,5891.00
384.28,5870.00
386.43,5747.00
388.58,5806.00
390.73,5745.00
392.87,5711.00
395.02,5710.00
397.16,5706.00
399.31,5755.00
401.45,5709.00
403.59,5762.00
405.73,5909.00
407.87,6017.00
410.01,6050.00
412.15,6046.00
414.28,6083.00
416.42,6049.00
418.55,6103.00
420.69,6038.00
422.82,6092.00
424.95,6010.00
427.08,5947.00
429.21,5962.00
431.34,5894.00
433.47,5951.00
435.60,6070.00
437.72,6192.00
439.85,6245.00
441.97,6432.00
444.10,6379.00
446.22,6453.00
448.34,6459.00
450.46,6422.00
452.58,6435.00
454.70,6272.00
456.81,6219.00
458.93,6241.00
461.05,6224.00
463.16,6097.00
465.27,6127.00
467.39,6207.00
469.50,5994.00
471.61,6293.00
473.72,6441.00
475.83,6529.00
477.93,6696.00
480.04,6837.00
482.15,6822.00
484.25,7008.00
486.35,7020.00
488.46,7020.00
490.56,6909.00
492.66,6959.00
494.76,6902.00
496.86,7043.00
498.96,7383.00
501.05,7732.00
503.15,7965.00
505.24,8388.00
507.34,8677.00
509.43,9000.00
511.52,9226.00
513.61,9898.00
515.70,11172.00
517.79,13596.00
519.88,17281.00
521.97,20586.00
524.06,20955.00
526.14,17958.00
528.23,13837.00
530.31,11111.00
532.39,10052.00
534.47,9921.00
536.55,10075.00
538.63,9918.00
540.71,9696.00
542.79,9374.00
544.87,9265.00
546.94,9595.00
549.02,10821.00
551.09,13062.00
553.16,15810.00
555.23,17958.00
557.30,18325.00
559.37,16999.00
561.44,15510.00
563.51,14391.00
565.58,13187.00
567.64,11682.00
569.71,10394.00
571.77,9381.00
573.84,8947.00
575.90,8857.00
577.96,8863.00
580.02,9002.00
582.08,9119.00
584.14,9026.00
586.19,8872.00
588.25,8604.00
590.30,8448.00
592.36,8378.00
594.41,8399.00
596.46,8583.00
598.51,8907.00
600.56,9097.00
602.61,8960.00
604.66,8833.00
606.71,9047.00
608.76,9366.00
610.80,9963.00
612.85,10749.00
614.89,11589.00
616.93,11737.00
618.97,11262.00
621.01,10387.00
623.05,9599.00
625.09,9047.00
627.13,8951.00
629.17,9015.00
631.20,9281.00
633.24,9841.00
635.27,10290.00
637.30,10778.00
639.33,10999.00
641.36,10956.00
643.39,10497.00
645.42,10154.00
647.45,9635.00
649.48,9232.00
651.50,9021.00
653.53,8850.00
655.55,8757.00
657.58,8711.00
659.60,8756.00
661.62,8874.00
663.64,8874.00
665.66,8952.00
667.68,8945.00
669.69,9059.00
671.71,9108.00
673.72,9206.00
675.74,9371.00
677.75,9578.00
679.76,9749.00
681.77,9999.00
683.78,10035.00
685.79,10109.00
687.80,10168.00
689.81,10184.00
691.81,10200.00
693.82,10339.00
695.82,10379.00
697.83,10364.00
699.83,10676.00
701.83,10484.00
703.83,10448.00
705.83,10480.00
707.83,10760.00
709.83,11414.00
711.82,12763.00
713.82,14043.00
715.81,14526.00
717.81,13608.00
719.80,12036.00
721.79,10820.00
723.78,10269.00
725.77,9967.00
727.76,10012.00
729.75,10029.00
731.73,10174.00
733.72,10252.00
735.70,10099.00
737.69,9979.00
739.67,10244.00
741.65,10236.00
743.63,10339.00
745.61,10514.00
747.59,10629.00
749.57,10845.00
751.55,10935.00
753.52,11123.00
755.50,11104.00
757.47,11133.00
759.44,11287.00
761.41,11315.00
763.39,11747.00
765.36,11728.00
767.32,12291.00
769.29,12470.00
771.26,12607.00
773.22,12631.00
775.19,12487.00
777.15,12495.00
779.12,12186.00
781.08,12095.00
783.04,11920.00
785.00,11939.00
786.96,12047.00
788.92,12502.00
790.87,13394.00
792.83,14684.00
794.79,16448.00
796.74,17916.00
798.69,18985.00
800.64,19326.00
802.60,19063.00
804.55,18557.00
806.50,17785.00
808.44,16701.00
810.39,15618.00
812.34,14597.00
814.28,14011.00
816.23,14430.00
818.17,15371.00
820.11,16042.00
822.05,16337.00
823.99,15789.00
825.93,14983.00
827.87,14275.00
829.81,13841.00
831.75,13563.00
833.68,13352.00
835.62,13353.00
837.55,13486.00
839.48,13491.00
841.41,13497.00
843.34,13505.00
845.27,13423.00
847.20,13290.00
849.13,13181.00
851.06,13004.00
852.98,13083.00
854.91,13233.00
856.83,13425.00
858.75,13634.00
860.67,13843.00
862.59,13906.00
864.51,14028.00
866.43,13697.00
868.35,13434.00
870.27,13187.00
872.18,12801.00
874.10,12540.00
876.01,12380.00
877.92,12270.00
879.84,12316.00
881.75,12407.00
883.66,12738.00
885.56,12943.00
887.47,13179.00
889.38,13493.00
891.28,13765.00
893.19,14058.00
895.09,14458.00
897.00,14714.00
898.90,14983.00
900.80,15356.00
902.70,15533.00
904.60,15725.00
906.50,16028.00
908.39,16244.00
910.29,16467.00
912.18,16541.00
914.08,16322.00
915.97,16326.00
917.86,16174.00
919.75,16282.00
921.64,16581.00
923.53,16879.00
925.42,17496.00
927.31,18314.00
929.19,19513.00
931.08,20933.00
932.96,22598.00
934.85,24462.00
936.73,25546.00
938.61,26241.00
940.49,25299.00
942.37,23405.00
944.25,21040.00
946.12,18753.00
948.00,17387.00
949.87,16468.00
951.75,15751.00
953.62,15200.00
955.49,14950.00
957.37,14698.00
959.24,14474.00
961.10,14245.00
962.97,14191.00
964.84,14011.00
966.71,14024.00
968.57,14167.00
970.44,13971.00
972.30,14071.00
974.16,14195.00
976.02,14342.00
977.88,14488.00
979.74,14492.00
981.60,14791.00
983.46,14853.00
985.31,15200.00
987.17,15327.00
989.02,15873.00
990.88,16352.00
992.73,17046.00
994.58,17768.00
996.43,18866.00
998.28,20100.00
1000.13,21481.00
1001.98,22189.00
1003.82,22254.00
1005.67,21874.00
1007.51,20806.00
1009.36,19982.00
1011.20,19170.00
1013.04,18721.00
1014.88,18732.00
1016.72,19205.00
1018.56,19792.00
1020.40,19990.00
1022.23,19853.00
1024.07,19062.00
1025.90,18533.00
1027.74,18049.00
1029.57,18042.00
1031.40,18135.00
1033.23,18480.00
1035.06,19142.00
1036.89,19939.00
1038.72,21265.00
1040.54,22501.00
1042.37,23984.00
1044.19,25296.00
1046.02,26477.00
1047.84,27847.00
1049.66,28672.00
1051.48,29110.00
1053.30,29287.00
1055.12,29117.00
1056.94,28613.00
1058.76,28211.00
1060.57,27806.00
1062.39,27309.00
1064.20,26759.00
1066.01,25826.00
1067.82,24845.00
1069.63,23666.00
1071.44,22701.00
1073.25,22101.00
1075.06,21759.00
1076.87,22052.00
1078.67,22633.00
1080.48,23255.00
1082.28,24209.00
1084.08,25235.00
1085.89,26325.00
1087.69,27415.00
1089.49,28437.00
1091.29,29317.00
1093.08,29836.00
1094.88,29874.00
1096.68,30083.00
1098.47,30180.00
1100.27,30500.00
1102.06,30803.00
1103.85,30600.00
1105.64,30732.00
1107.43,30799.00
1109.22,31196.00
1111.01,31910.00
1112.79,32667.00
1114.58,33816.00
1116.37,35636.00
1118.15,37935.00
1119.93,40043.00
1121.71,40204.00
1123.49,38853.00
1125.27,36540.00
1127.05,34678.00
1128.83,34398.00
1130.61,34834.00
1132.38,35311.00
1134.16,35273.00
1135.93,34292.00
1137.71,32608.00
1139.48,30542.00
1141.25,28337.00
1143.02,26531.00
1144.79,25798.00
1146.56,25618.00
1148.32,26207.00
1150.09,27233.00
1151.86,28324.00
1153.62,29408.00
1155.38,30213.00
1157.14,30240.00
1158.91,30169.00
1160.67,29560.00
1162.42,29665.00
1164.18,29720.00
1165.94,30076.00
1167.70,30177.00
1169.45,30088.00
1171.21,29863.00
1172.96,30129.00
1174.71,30797.00
1176.46,31324.00
1178.21,31480.00
1179.96,31030.00
1181.71,29585.00
1183.46,28039.00
1185.20,26239.00
1186.95,25086.00
1188.69,24570.00
1190.44,24582.00
1192.18,24997.00
1193.92,26372.00
1195.66,28619.00
1197.40,32201.00
1199.14,37524.00
1200.87,43940.00
1202.61,51046.00
1204.35,56505.00
1206.08,58256.00
1207.81,56627.00
1209.55,51657.00
1211.28,44545.00
1213.01,37526.00
1214.74,32334.00
1216.46,28813.00
1218.19,26764.00
1219.92,25702.00
1221.64,25343.00
1223.37,25199.00
1225.09,25602.00
1226.81,25992.00
1228.53,27125.00
1230.26,28120.00
1231.97,29005.00
1233.69,29510.00
1235.41,30015.00
1237.13,29865.00
1238.84,29090.00
1240.56,28510.00
1242.27,28212.00
1243.98,28149.00
1245.69,28656.00
1247.40,29130.00
1249.11,29853.00
1250.82,29878.00
1252.53,29357.00
1254.24,28813.00
1255.94,28341.00
1257.65,28432.00
1259.35,28653.00
1261.05,29050.00
1262.75,29209.00
1264.45,29245.00
1266.15,28942.00
1267.85,28910.00
1269.55,29229.00
1271.25,29528.00
1272.94,30308.00
1274.64,30854.00
1276.33,31478.00
1278.02,31501.00
1279.71,31858.00
1281.40,31757.00
1283.09,31798.00
1284.78,31645.00
1286.47,31182.00
1288.16,30177.00
1289.84,29278.00
1291.53,28579.00
1293.21,28162.00
1294.89,28421.00
1296.57,28830.00
1298.25,29506.00
1299.93,29543.00
1301.61,29117.00
1303.29,28107.00
1304.97,26999.00
1306.64,25976.00
1308.32,25094.00
1309.99,24506.00
1311.66,24131.00
1313.33,23865.00
1315.01,23461.00
1316.67,23570.00
1318.34,23241.00
1320.01,23100.00
1321.68,23475.00
1323.34,23456.00
1325.01,23700.00
1326.67,24127.00
1328.33,24316.00
1330.00,24672.00
1331.66,25056.00
1333.32,25763.00
1334.98,26281.00
1336.63,27144.00
1338.29,27793.00
1339.95,28963.00
1341.60,30241.00
1343.25,31431.00
1344.91,32479.00
1346.56,33073.00
1348.21,33365.00
1349.86,33215.00
1351.51,32791.00
1353.16,32646.00
1354.80,33002.00
1356.45,33786.00
1358.09,35011.00
1359.74,37505.00
1361.38,40212.00
1363.02,43126.00
1364.66,46200.00
1366.30,48070.00
1367.94,49052.00
1369.58,48885.00
1371.22,47305.00
1372.85,44806.00
1374.49,42585.00
1376.12,41186.00
1377.75,40853.00
1379.38,41029.00
1381.02,41236.00
1382.65,40459.00
1384.27,39221.00
1385.90,37342.00
1387.53,35781.00
1389.15,34381.00
1390.78,33814.00
1392.40,33873.00
1394.03,34432.00
1395.65,35175.00
1397.27,36087.00
1398.89,37248.00
1400.51,38254.00
1402.13,39761.00
1403.74,41186.00
1405.36,42062.00
1406.97,42759.00
1408.59,43010.00
1410.20,42970.00
1411.81,42356.00
1413.42,41416.00
1415.03,40092.00
1416.64,38703.00
1418.25,36957.00
1419.86,35298.00
1421.46,33550.00
1423.07,31809.00
1424.67,30449.00
1426.28,29633.00
1427.88,29226.00
1429.48,28995.00
1431.08,28969.00
1432.68,28986.00
1434.28,28923.00
1435.87,28548.00
1437.47,28385.00
1439.06,28036.00
1440.66,27712.00
1442.25,27097.00
1443.84,26492.00
1445.43,25749.00
1447.02,25086.00
1448.61,24837.00
1450.20,24587.00
1451.79,24525.00
1453.37,24621.00
1454.96,24995.00
1456.54,25256.00
1458.13,26140.00
1459.71,27363.00
1461.29,29197.00
1462.87,32133.00
1464.45,35511.00
1466.03,38882.00
1467.60,39799.00
1469.18,37891.00
1470.76,34227.00
1472.33,30228.00
1473.90,27114.00
1475.48,24957.00
1477.05,23614.00
1478.62,23346.00
1480.19,23196.00
1481.75,23458.00
1483.32,23690.00
1484.89,23595.00
1486.45,23172.00
1488.02,22354.00
1489.58,21635.00
1491.14,21354.00
1492.70,21045.00
1494.26,20861.00
1495.82,20929.00
1497.38,20916.00
1498.94,21234.00
1500.50,21379.00
1502.05,21752.00
1503.61,22142.00
1505.16,22611.00
1506.71,23094.00
1508.26,23697.00
1509.81,24192.00
1511.36,24917.00
1512.91,25766.00
1514.46,26658.00
1516.00,27558.00
1517.55,28946.00
1519.09,30364.00
1520.64,32026.00
1522.18,33403.00
1523.72,34506.00
1525.26,35167.00
1526.80,35188.00
1528.34,34687.00
1529.88,33313.00
1531.41,31940.00
1532.95,30323.00
1534.48,28522.00
1536.02,27076.00
1537.55,25739.00
1539.08,24778.00
1540.61,24010.00
1542.14,23564.00
1543.67,23332.00
1545.19,22979.00
1546.72,22660.00
1548.25,22638.00
1549.77,22311.00
1551.29,21856.00
1552.82,21660.00
1554.34,21130.00
1555.86,20635.00
1557.38,20297.00
1558.90,19876.00
1560.41,19429.00
1561.93,19202.00
1563.45,19067.00
1564.96,18823.00
1566.47,18645.00
1567.99,18776.00
1569.50,18888.00
1571.01,19131.00
1572.52,19427.00
1574.03,19925.00
1575.53,20521.00
1577.04,21304.00
1578.55,22189.00
1580.05,23033.00
1581.55,23534.00
1583.06,23966.00
1584.56,23998.00
1586.06,23639.00
1587.56,23104.00
1589.06,22397.00
1590.56,21426.00
1592.05,20817.00
1593.55,20443.00
1595.04,20308.00
1596.54,20100.00
1598.03,20394.00
1599.52,20207.00
1601.01,20104.00
1602.50,19596.00
1603.99,19180.00
1605.48,18736.00
1606.96,18302.00
1608.45,17935.00
1609.93,17870.00
1611.42,18169.00
1612.90,18137.00
1614.38,18198.00
1615.86,18065.00
1617.34,17783.00
1618.82,17492.00
1620.30,16906.00
1621.78,16511.00
1623.25,16107.00
1624.73,15957.00
1626.20,15644.00
1627.67,15456.00
1629.14,15323.00
1630.62,15160.00
1632.08,15230.00
1633.55,15131.00
1635.02,15150.00
1636.49,15080.00
1637.95,15011.00
1639.42,14974.00
1640.88,14953.00
1642.35,14970.00
1643.81,14915.00
1645.27,14901.00
1646.73,14895.00
1648.19,14773.00
1649.64,14658.00
1651.10,14700.00
1652.56,14631.00
1654.01,14635.00
1655.47,14547.00
1656.92,14627.00
1658.37,14495.00
1659.82,14511.00
1661.27,14319.00
1662.72,14345.00
1664.17,14140.00
1665.62,14110.00
1667.06,13988.00
1668.51,13984.00
1669.95,14003.00
1671.39,13915.00
1672.84,13975.00
1674.28,13895.00
1675.72,13821.00
1677.16,13773.00
1678.59,13777.00
1680.03,13774.00
1681.47,13731.00
1682.90,13695.00
1684.34,13647.00
1685.77,13644.00
1687.20,13479.00
1688.63,13476.00
1690.06,13400.00
1691.49,13385.00
1692.92,13362.00
1694.35,13134.00
1695.77,13158.00
1697.20,12940.00
1698.62,12921.00
1700.04,12957.00
1701.47,12857.00
1702.89,12753.00
1704.31,12719.00
1705.73,12761.00
1707.14,12510.00
1708.56,12572.00
1709.98,12554.00
1711.39,12476.00
1712.81,12462.00
1714.22,12468.00
1715.63,12468.00
1717.04,12350.00
1718.45,12358.00
1719.86,12398.00
1721.27,12529.00
1722.68,12480.00
1724.08,12394.00
1725.49,12454.00
1726.89,12465.00
1728.30,12534.00
1729.70,12452.00
1731.10,12371.00
1732.50,12319.00
1733.90,12205.00
1735.30,12200.00
1736.69,12114.00
1738.09,12003.00
1739.49,11840.00
1740.88,11560.00
1742.27,11760.00
1743.67,11661.00
1745.06,11448.00
1746.45,11511.00
1747.84,11400.00
1749.23,11381.00
1750.61,11325.00
1752.00,11396.00
1753.38,11433.00
1754.77,11445.00
1756.15,11492.00
1757.53,11447.00
1758.92,11523.00
1760.30,11387.00
1761.68,11427.00
1763.05,11379.00
1764.43,11273.00
1765.81,11182.00
1767.18,11107.00
1768.56,11077.00
1769.93,10976.00
1771.30,10851.00
1772.67,10777.00
1774.05,10707.00
1775.41,10647.00
1776.78,10470.00
1778.15,10408.00
1779.52,10366.00
1780.88,10345.00
1782.25,10368.00
1783.61,10210.00
1784.97,10164.00
1786.33,10160.00
1787.69,10145.00
1789.05,10122.00
1790.41,10096.00
1791.77,10061.00
1793.13,9969.00
1794.48,9942.00
1795.84,9850.00
1797.19,9976.00
1798.54,9949.00
1799.89,9848.00
1801.25,9848.00
1802.59,9763.00
1803.94,9854.00
1805.29,9733.00
1806.64,9700.00
1807.98,9719.00
1809.33,9675.00
1810.67,9639.00
1812.01,9525.00
1813.36,9548.00
1814.70,9553.00
1816.04,9538.00
1817.37,9498.00
1818.71,9499.00
1820.05,9525.00
1821.38,9468.00
1822.72,9489.00
1824.05,9423.00
1825.39,9384.00
1826.72,9242.00
1828.05,9270.00
1829.38,9221.00
1830.71,9211.00
1832.03,9173.00
1833.36,9127.00
1834.69,9164.00
1836.01,9139.00
1837.34,9076.00
1838.66,9000.00
1839.98,8992.00
1841.30,8995.00
1842.62,9004.00
1843.94,9024.00
1845.26,8946.00
1846.57,8939.00
1847.89,8941.00
1849.20,8859.00
1850.52,8862.00
1851.83,8850.00
1853.14,8760.00
1854.45,8764.00
1855.76,8661.00
1857.07,8631.00
1858.38,8563.00
1859.69,8616.00
1860.99,8517.00
1862.30,8551.00
1863.60,8494.00
1864.90,8538.00
1866.21,8446.00
1867.51,8467.00
1868.81,8423.00
1870.11,8323.00
1871.40,8241.00
1872.70,8309.00
1874.00,8254.00
1875.29,8252.00
1876.59,8121.00
1877.88,8178.00
1879.17,8157.00
1880.46,8205.00
1881.75,8108.00
1883.04,8076.00
1884.33,7999.00
1885.62,8050.00
1886.90,8058.00
1888.19,7929.00
1889.47,7950.00
1890.75,7971.00
1892.04,7917.00
1893.32,7893.00
1894.60,7834.00
1895.88,7824.00
1897.15,7815.00
1898.43,7738.00
1899.71,7752.00
1900.98,7678.00
1902.26,7708.00
1903.53,7697.00
1904.80,7598.00
1906.07,7478.00
1907.34,7533.00
1908.61,7537.00
1909.88,7538.00
1911.15,7457.00
1912.41,7480.00
1913.68,7391.00
1914.94,7564.00
1916.21,7431.00
1917.47,7461.00
1918.73,7473.00
1919.99,7471.00
1921.25,7465.00
1922.51,7476.00
1923.76,7420.00
1925.02,7427.00
1926.28,7436.00
1927.53,7373.00
1928.78,7314.00
1930.04,7252.00
1931.29,7158.00
1932.54,7155.00
1933.79,7147.00
1935.03,7052.00
1936.28,7031.00
1937.53,6985.00
1938.77,6874.00
1940.02,6907.00
1941.26,6852.00
1942.50,6856.00
1943.75,6736.00
1944.99,6793.00
1946.22,6709.00
1947.46,6643.00
1948.70,6573.00
1949.94,6599.00
1951.17,6575.00
1952.41,6601.00
1953.64,6579.00
1954.87,6517.00
1956.10,6593.00
1957.33,6518.00
1958.56,6454.00
1959.79,6540.00
1961.02,6413.00
1962.25,6452.00
1963.47,6404.00
1964.70,6312.00
1965.92,6338.00
1967.14,6406.00
1968.36,6386.00
1969.58,6319.00
1970.80,6297.00
1972.02,6253.00
1973.24,6235.00
1974.46,6262.00
1975.67,6175.00
1976.89,6076.00
1978.10,6135.00
1979.31,6010.00
1980.52,6140.00
1981.73,6049.00
1982.94,6061.00
1984.15,5954.00
1985.36,6088.00
1986.57,5978.00
1987.77,5994.00
1988.98,5928.00
1990.18,5920.00
1991.38,5977.00
1992.58,5898.00
1993.78,5922.00
1994.98,5770.00
1996.18,5827.00
1997.38,5802.00
1998.58,5788.00
1999.77,5821.00
2000.97,5749.00
2002.16,5704.00
