Integration Time,200
Timestamp,2023-07-10 13_33_27.393000
Note,
Temperature,9.97
CCD C0,801.50982666
CCD C1,0.141540005803
CCD C2,-5.58820011065e-06
CCD C3,-8.47330028364e-09
CCD Offset,0
CCD Gain,NA
Laser Wavelength,785.0
Laser Enable,0
Laser Power,100
Laser Temperature,0.00
Pixel Count,1024

Wavenumber,Spectrum
262.40,-55.00
264.60,-49.00
266.80,-36.00
269.01,-35.00
271.21,-17.00
273.40,-44.00
275.60,-14.00
277.80,-8.00
280.00,-6.00
282.19,38.00
284.38,64.00
286.58,82.00
288.77,150.00
290.96,242.00
293.15,321.00
295.34,476.00
297.53,624.00
299.72,812.00
301.90,955.00
304.09,1367.00
306.27,1760.00
308.46,2196.00
310.64,2658.00
312.82,3193.00
315.00,3652.00
317.18,4028.00
319.36,4396.00
321.54,4642.00
323.72,4816.00
325.89,4773.00
328.07,4744.00
330.24,4693.00
332.42,4517.00
334.59,4473.00
336.76,4359.00
338.93,4341.00
341.10,4298.00
343.27,4282.00
345.43,4244.00
347.60,4276.00
349.77,4324.00
351.93,4374.00
354.09,4415.00
356.26,4465.00
358.42,4493.00
360.58,4615.00
362.74,4551.00
364.90,4660.00
367.06,4735.00
369.21,4742.00
371.37,4974.00
373.52,5011.00
375.68,5134.00
377.83,5172.00
379.98,5243.00
382.13,5149.00
384.28,5138.00
386.43,5121.00
388.58,5127.00
390.73,4991.00
392.87,5026.00
395.02,5071.00
397.16,5063.00
399.31,5060.00
401.45,5003.00
403.59,5190.00
405.73,5237.00
407.87,5279.00
410.01,5293.00
412.15,5340.00
414.28,5282.00
416.42,5442.00
418.55,5373.00
420.69,5336.00
422.82,5251.00
424.95,5260.00
427.08,5258.00
429.21,5247.00
431.34,5266.00
433.47,5277.00
435.60,5410.00
437.72,5460.00
439.85,5580.00
441.97,5581.00
444.10,5666.00
446.22,5713.00
448.34,5724.00
450.46,5701.00
452.58,5612.00
454.70,5494.00
456.81,5460.00
458.93,5414.00
461.05,5465.00
463.16,5433.00
465.27,5433.00
467.39,5402.00
469.50,5151.00
471.61,5574.00
473.72,5680.00
475.83,5726.00
477.93,5916.00
480.04,6029.00
482.15,6059.00
484.25,6184.00
486.35,6160.00
488.46,6152.00
490.56,6067.00
492.66,6087.00
494.76,6151.00
496.86,6213.00
498.96,6472.00
501.05,6750.00
503.15,6987.00
505.24,7349.00
507.34,7480.00
509.43,7864.00
511.52,8106.00
513.61,8658.00
515.70,9707.00
517.79,11850.00
519.88,14985.00
521.97,17882.00
524.06,18289.00
526.14,15656.00
528.23,12030.00
530.31,9683.00
532.39,8895.00
534.47,8761.00
536.55,8812.00
538.63,8777.00
540.71,8423.00
542.79,8231.00
544.87,8024.00
546.94,8403.00
549.02,9415.00
551.09,11374.00
553.16,13765.00
555.23,15637.00
557.30,15825.00
559.37,14815.00
561.44,13583.00
563.51,12516.00
565.58,11462.00
567.64,10197.00
569.71,9044.00
571.77,8184.00
573.84,7837.00
575.90,7748.00
577.96,7842.00
580.02,7972.00
582.08,7976.00
584.14,7923.00
586.19,7777.00
588.25,7587.00
590.30,7424.00
592.36,7400.00
594.41,7322.00
596.46,7571.00
598.51,7802.00
600.56,7920.00
602.61,7828.00
604.66,7745.00
606.71,7809.00
608.76,8232.00
610.80,8726.00
612.85,9423.00
614.89,10168.00
616.93,10284.00
618.97,9814.00
621.01,9097.00
623.05,8338.00
625.09,7984.00
627.13,7804.00
629.17,7828.00
631.20,8208.00
633.24,8538.00
635.27,8908.00
637.30,9348.00
639.33,9576.00
641.36,9476.00
643.39,9262.00
645.42,8663.00
647.45,8372.00
649.48,8031.00
651.50,7905.00
653.53,7634.00
655.55,7600.00
657.58,7673.00
659.60,7613.00
661.62,7775.00
663.64,7736.00
665.66,7779.00
667.68,7811.00
669.69,7830.00
671.71,7975.00
673.72,8038.00
675.74,8125.00
677.75,8282.00
679.76,8499.00
681.77,8713.00
683.78,8831.00
685.79,8884.00
687.80,8921.00
689.81,8871.00
691.81,8821.00
693.82,8975.00
695.82,9131.00
697.83,9170.00
699.83,9162.00
701.83,9179.00
703.83,9087.00
705.83,9021.00
707.83,9375.00
709.83,9873.00
711.82,10906.00
713.82,12110.00
715.81,12478.00
717.81,11645.00
719.80,10438.00
721.79,9411.00
723.78,8899.00
725.77,8641.00
727.76,8699.00
729.75,8815.00
731.73,8755.00
733.72,8772.00
735.70,8701.00
737.69,8684.00
739.67,8738.00
741.65,8804.00
743.63,8934.00
745.61,9080.00
747.59,9223.00
749.57,9461.00
751.55,9459.00
753.52,9610.00
755.50,9616.00
757.47,9681.00
759.44,9736.00
761.41,9742.00
763.39,10162.00
765.36,10094.00
767.32,10505.00
769.29,10691.00
771.26,10824.00
773.22,10898.00
775.19,10802.00
777.15,10640.00
779.12,10505.00
781.08,10484.00
783.04,10315.00
785.00,10314.00
786.96,10364.00
788.92,10755.00
790.87,11534.00
792.83,12676.00
794.79,14053.00
796.74,15142.00
798.69,16244.00
800.64,16453.00
802.60,16263.00
804.55,15883.00
806.50,15215.00
808.44,14260.00
810.39,13305.00
812.34,12483.00
814.28,12091.00
816.23,12364.00
818.17,13184.00
820.11,13921.00
822.05,14024.00
823.99,13529.00
825.93,12919.00
827.87,12408.00
829.81,11947.00
831.75,11530.00
833.68,11528.00
835.62,11500.00
837.55,11639.00
839.48,11551.00
841.41,11545.00
843.34,11589.00
845.27,11511.00
847.20,11387.00
849.13,11220.00
851.06,11214.00
852.98,11228.00
854.91,11260.00
856.83,11568.00
858.75,11736.00
860.67,11904.00
862.59,11939.00
864.51,11870.00
866.43,11717.00
868.35,11570.00
870.27,11296.00
872.18,11001.00
874.10,10843.00
876.01,10615.00
877.92,10574.00
879.84,10579.00
881.75,10743.00
883.66,10942.00
885.56,11016.00
887.47,11313.00
889.38,11560.00
891.28,11800.00
893.19,12012.00
895.09,12346.00
897.00,12550.00
898.90,12778.00
900.80,12961.00
902.70,13223.00
904.60,13385.00
906.50,13610.00
908.39,13935.00
910.29,14055.00
912.18,14097.00
914.08,13849.00
915.97,13786.00
917.86,13718.00
919.75,13808.00
921.64,14038.00
923.53,14267.00
925.42,14945.00
927.31,15563.00
929.19,16526.00
931.08,17669.00
932.96,18987.00
934.85,20585.00
936.73,21700.00
938.61,22007.00
940.49,21459.00
942.37,19834.00
944.25,17785.00
946.12,16027.00
948.00,14781.00
949.87,13870.00
951.75,13438.00
953.62,12963.00
955.49,12700.00
957.37,12449.00
959.24,12357.00
961.10,12234.00
962.97,12065.00
964.84,11960.00
966.71,11949.00
968.57,11981.00
970.44,11941.00
972.30,12042.00
974.16,12148.00
976.02,12261.00
977.88,12283.00
979.74,12419.00
981.60,12523.00
983.46,12690.00
985.31,12810.00
987.17,13130.00
989.02,13533.00
990.88,13815.00
992.73,14448.00
994.58,15115.00
996.43,16092.00
998.28,17083.00
1000.13,18080.00
1001.98,18658.00
1003.82,18970.00
1005.67,18421.00
1007.51,17488.00
1009.36,16892.00
1011.20,16067.00
1013.04,15713.00
1014.88,15930.00
1016.72,16244.00
1018.56,16568.00
1020.40,16994.00
1022.23,16708.00
1024.07,16241.00
1025.90,15632.00
1027.74,15356.00
1029.57,15193.00
1031.40,15348.00
1033.23,15668.00
1035.06,16058.00
1036.89,16916.00
1038.72,17888.00
1040.54,19012.00
1042.37,20191.00
1044.19,21211.00
1046.02,22294.00
1047.84,23169.00
1049.66,24164.00
1051.48,24536.00
1053.30,24546.00
1055.12,24297.00
1056.94,24011.00
1058.76,23551.00
1060.57,23233.00
1062.39,22870.00
1064.20,22223.00
1066.01,21658.00
1067.82,20707.00
1069.63,19829.00
1071.44,18963.00
1073.25,18493.00
1075.06,18348.00
1076.87,18501.00
1078.67,18900.00
1080.48,19397.00
1082.28,20275.00
1084.08,21035.00
1085.89,22027.00
1087.69,22840.00
1089.49,23671.00
1091.29,24331.00
1093.08,24765.00
1094.88,24812.00
1096.68,25181.00
1098.47,25099.00
1100.27,25280.00
1102.06,25524.00
1103.85,25288.00
1105.64,25383.00
1107.43,25509.00
1109.22,25933.00
1111.01,26454.00
1112.79,27160.00
1114.58,27993.00
1116.37,29389.00
1118.15,31463.00
1119.93,33061.00
1121.71,33405.00
1123.49,32355.00
1125.27,30360.00
1127.05,29014.00
1128.83,28596.00
1130.61,28938.00
1132.38,29347.00
1134.16,29163.00
1135.93,28255.00
1137.71,26846.00
1139.48,25198.00
1141.25,23459.00
1143.02,22136.00
1144.79,21447.00
1146.56,21292.00
1148.32,21831.00
1150.09,22655.00
1151.86,23534.00
1153.62,24392.00
1155.38,24920.00
1157.14,24898.00
1158.91,24723.00
1160.67,24413.00
1162.42,24326.00
1164.18,24634.00
1165.94,24687.00
1167.70,24826.00
1169.45,24617.00
1171.21,24605.00
1172.96,24827.00
1174.71,25362.00
1176.46,25943.00
1178.21,25954.00
1179.96,25404.00
1181.71,24611.00
1183.46,23083.00
1185.20,21791.00
1186.95,20766.00
1188.69,20379.00
1190.44,20279.00
1192.18,20646.00
1193.92,21861.00
1195.66,23639.00
1197.40,26713.00
1199.14,30910.00
1200.87,36420.00
1202.61,42164.00
1204.35,46704.00
1206.08,48567.00
1207.81,46827.00
1209.55,42421.00
1211.28,36751.00
1213.01,31077.00
1214.74,26694.00
1216.46,23743.00
1218.19,22242.00
1219.92,21344.00
1221.64,20756.00
1223.37,20789.00
1225.09,21232.00
1226.81,21473.00
1228.53,22246.00
1230.26,22987.00
1231.97,23872.00
1233.69,24290.00
1235.41,24708.00
1237.13,24373.00
1238.84,24095.00
1240.56,23528.00
1242.27,23114.00
1243.98,23114.00
1245.69,23320.00
1247.40,23830.00
1249.11,24258.00
1250.82,24298.00
1252.53,23898.00
1254.24,23528.00
1255.94,23340.00
1257.65,23370.00
1259.35,23403.00
1261.05,23773.00
1262.75,24057.00
1264.45,24038.00
1266.15,23954.00
1267.85,23836.00
1269.55,23893.00
1271.25,24308.00
1272.94,24873.00
1274.64,25345.00
1276.33,25757.00
1278.02,25918.00
1279.71,26007.00
1281.40,26060.00
1283.09,26138.00
1284.78,25887.00
1286.47,25328.00
1288.16,24677.00
1289.84,23961.00
1291.53,23388.00
1293.21,23110.00
1294.89,23275.00
1296.57,23627.00
1298.25,24025.00
1299.93,24143.00
1301.61,23623.00
1303.29,23024.00
1304.97,22193.00
1306.64,21241.00
1308.32,20456.00
1309.99,20018.00
1311.66,19682.00
1313.33,19489.00
1315.01,19398.00
1316.67,19206.00
1318.34,18987.00
1320.01,18943.00
1321.68,19065.00
1323.34,19221.00
1325.01,19509.00
1326.67,19757.00
1328.33,20112.00
1330.00,20197.00
1331.66,20629.00
1333.32,20979.00
1334.98,21464.00
1336.63,22052.00
1338.29,22778.00
1339.95,23870.00
1341.60,24656.00
1343.25,25716.00
1344.91,26519.00
1346.56,27124.00
1348.21,27268.00
1349.86,27175.00
1351.51,26854.00
1353.16,26564.00
1354.80,26753.00
1356.45,27423.00
1358.09,28539.00
1359.74,30338.00
1361.38,32644.00
1363.02,35144.00
1364.66,37410.00
1366.30,39316.00
1367.94,39974.00
1369.58,39731.00
1371.22,38467.00
1372.85,36451.00
1374.49,34615.00
1376.12,33359.00
1377.75,33250.00
1379.38,33370.00
1381.02,33427.00
1382.65,33063.00
1384.27,31781.00
1385.90,30436.00
1387.53,28916.00
1389.15,27936.00
1390.78,27704.00
1392.40,27454.00
1394.03,27859.00
1395.65,28241.00
1397.27,29027.00
1398.89,30091.00
1400.51,30945.00
1402.13,32204.00
1403.74,33158.00
1405.36,33996.00
1406.97,34436.00
1408.59,34627.00
1410.20,34305.00
1411.81,33835.00
1413.42,33184.00
1415.03,32118.00
1416.64,30822.00
1418.25,29526.00
1419.86,28006.00
1421.46,26526.00
1423.07,25410.00
1424.67,24387.00
1426.28,23683.00
1427.88,23334.00
1429.48,23259.00
1431.08,23340.00
1432.68,23148.00
1434.28,23085.00
1435.87,22680.00
1437.47,22512.00
1439.06,22307.00
1440.66,22189.00
1442.25,21717.00
1443.84,21070.00
1445.43,20397.00
1447.02,19984.00
1448.61,19716.00
1450.20,19447.00
1451.79,19419.00
1453.37,19743.00
1454.96,19908.00
1456.54,20216.00
1458.13,20943.00
1459.71,21780.00
1461.29,23224.00
1462.87,25733.00
1464.45,28280.00
1466.03,30951.00
1467.60,31860.00
1469.18,30234.00
1470.76,27310.00
1472.33,24140.00
1473.90,21479.00
1475.48,19931.00
1477.05,19029.00
1478.62,18607.00
1480.19,18531.00
1481.75,18816.00
1483.32,18757.00
1484.89,18881.00
1486.45,18458.00
1488.02,18002.00
1489.58,17414.00
1491.14,16923.00
1492.70,16708.00
1494.26,16632.00
1495.82,16653.00
1497.38,16746.00
1498.94,16879.00
1500.50,17112.00
1502.05,17405.00
1503.61,17650.00
1505.16,17971.00
1506.71,18477.00
1508.26,18930.00
1509.81,19367.00
1511.36,19807.00
1512.91,20506.00
1514.46,21063.00
1516.00,21931.00
1517.55,22965.00
1519.09,24118.00
1520.64,25315.00
1522.18,26340.00
1523.72,27281.00
1525.26,27804.00
1526.80,27850.00
1528.34,27304.00
1529.88,26254.00
1531.41,25204.00
1532.95,23734.00
1534.48,22417.00
1536.02,21251.00
1537.55,20264.00
1539.08,19328.00
1540.61,18845.00
1542.14,18635.00
1543.67,18391.00
1545.19,18217.00
1546.72,17990.00
1548.25,17832.00
1549.77,17507.00
1551.29,17298.00
1552.82,16948.00
1554.34,16562.00
1555.86,16311.00
1557.38,16030.00
1558.90,15691.00
1560.41,15407.00
1561.93,15228.00
1563.45,15057.00
1564.96,14912.00
1566.47,14766.00
1567.99,14842.00
1569.50,14885.00
1571.01,15013.00
1572.52,15367.00
1574.03,15734.00
1575.53,16106.00
1577.04,16741.00
1578.55,17296.00
1580.05,17983.00
1581.55,18412.00
1583.06,18706.00
1584.56,18876.00
1586.06,18660.00
1587.56,18023.00
1589.06,17489.00
1590.56,16785.00
1592.05,16408.00
1593.55,16018.00
1595.04,15869.00
1596.54,15875.00
1598.03,15929.00
1599.52,15879.00
1601.01,15740.00
1602.50,15247.00
1603.99,14997.00
1605.48,14711.00
1606.96,14254.00
1608.45,14171.00
1609.93,14003.00
1611.42,14111.00
1612.90,14207.00
1614.38,14285.00
1615.86,14028.00
1617.34,13931.00
1618.82,13647.00
1620.30,13227.00
1621.78,13045.00
1623.25,12665.00
1624.73,12349.00
1626.20,12285.00
1627.67,12030.00
1629.14,12038.00
1630.62,11905.00
1632.08,11884.00
1633.55,11766.00
1635.02,11743.00
1636.49,11740.00
1637.95,11678.00
1639.42,11721.00
1640.88,11643.00
1642.35,11624.00
1643.81,11584.00
1645.27,11581.00
1646.73,11467.00
1648.19,11549.00
1649.64,11473.00
1651.10,11450.00
1652.56,11452.00
1654.01,11418.00
1655.47,11452.00
1656.92,11376.00
1658.37,11273.00
1659.82,11198.00
1661.27,11129.00
1662.72,11125.00
1664.17,11029.00
1665.62,11019.00
1667.06,10933.00
1668.51,10919.00
1669.95,10859.00
1671.39,10796.00
1672.84,10904.00
1674.28,10804.00
1675.72,10678.00
1677.16,10670.00
1678.59,10695.00
1680.03,10584.00
1681.47,10655.00
1682.90,10633.00
1684.34,10545.00
1685.77,10515.00
1687.20,10519.00
1688.63,10489.00
1690.06,10375.00
1691.49,10370.00
1692.92,10258.00
1694.35,10185.00
1695.77,10154.00
1697.20,10134.00
1698.62,10046.00
1700.04,10031.00
1701.47,9932.00
1702.89,9903.00
1704.31,9877.00
1705.73,9700.00
1707.14,9733.00
1708.56,9673.00
1709.98,9721.00
1711.39,9668.00
1712.81,9563.00
1714.22,9605.00
1715.63,9641.00
1717.04,9570.00
1718.45,9504.00
1719.86,9619.00
1721.27,9556.00
1722.68,9535.00
1724.08,9582.00
1725.49,9612.00
1726.89,9619.00
1728.30,9679.00
1729.70,9569.00
1731.10,9544.00
1732.50,9460.00
1733.90,9369.00
1735.30,9303.00
1736.69,9255.00
1738.09,9182.00
1739.49,9116.00
1740.88,9041.00
1742.27,8937.00
1743.67,8876.00
1745.06,8874.00
1746.45,8821.00
1747.84,8808.00
1749.23,8760.00
1750.61,8652.00
1752.00,8729.00
1753.38,8726.00
1754.77,8688.00
1756.15,8775.00
1757.53,8745.00
1758.92,8770.00
1760.30,8811.00
1761.68,8676.00
1763.05,8665.00
1764.43,8563.00
1765.81,8572.00
1767.18,8448.00
1768.56,8492.00
1769.93,8448.00
1771.30,8308.00
1772.67,8300.00
1774.05,8190.00
1775.41,8104.00
1776.78,7965.00
1778.15,7923.00
1779.52,7956.00
1780.88,7958.00
1782.25,7933.00
1783.61,7815.00
1784.97,7756.00
1786.33,7811.00
1787.69,7721.00
1789.05,7760.00
1790.41,7733.00
1791.77,7693.00
1793.13,7617.00
1794.48,7581.00
1795.84,7571.00
1797.19,7541.00
1798.54,7604.00
1799.89,7569.00
1801.25,7548.00
1802.59,7560.00
1803.94,7531.00
1805.29,7378.00
1806.64,7348.00
1807.98,7402.00
1809.33,7269.00
1810.67,7318.00
1812.01,7316.00
1813.36,7305.00
1814.70,7251.00
1816.04,7223.00
1817.37,7158.00
1818.71,7225.00
1820.05,7286.00
1821.38,7267.00
1822.72,7219.00
1824.05,7157.00
1825.39,7130.00
1826.72,7088.00
1828.05,7050.00
1829.38,6927.00
1830.71,6976.00
1832.03,6940.00
1833.36,6865.00
1834.69,6931.00
1836.01,6930.00
1837.34,6875.00
1838.66,6946.00
1839.98,6865.00
1841.30,6794.00
1842.62,6849.00
1843.94,6783.00
1845.26,6738.00
1846.57,6782.00
1847.89,6727.00
1849.20,6649.00
1850.52,6687.00
1851.83,6674.00
1853.14,6613.00
1854.45,6586.00
1855.76,6603.00
1857.07,6514.00
1858.38,6434.00
1859.69,6529.00
1860.99,6457.00
1862.30,6413.00
1863.60,6388.00
1864.90,6427.00
1866.21,6449.00
1867.51,6302.00
1868.81,6413.00
1870.11,6280.00
1871.40,6194.00
1872.70,6195.00
1874.00,6213.00
1875.29,6215.00
1876.59,6155.00
1877.88,6158.00
1879.17,6101.00
1880.46,6086.00
1881.75,6054.00
1883.04,6076.00
1884.33,6051.00
1885.62,6017.00
1886.90,6065.00
1888.19,6059.00
1889.47,5988.00
1890.75,5972.00
1892.04,6047.00
1893.32,5932.00
1894.60,5945.00
1895.88,5932.00
1897.15,5897.00
1898.43,5903.00
1899.71,5862.00
1900.98,5784.00
1902.26,5821.00
1903.53,5784.00
1904.80,5680.00
1906.07,5736.00
1907.34,5659.00
1908.61,5674.00
1909.88,5672.00
1911.15,5605.00
1912.41,5654.00
1913.68,5667.00
1914.94,5596.00
1916.21,5639.00
1917.47,5606.00
1918.73,5576.00
1919.99,5604.00
1921.25,5647.00
1922.51,5526.00
1923.76,5546.00
1925.02,5543.00
1926.28,5570.00
1927.53,5505.00
1928.78,5456.00
1930.04,5403.00
1931.29,5438.00
1932.54,5332.00
1933.79,5275.00
1935.03,5311.00
1936.28,5294.00
1937.53,5284.00
1938.77,5222.00
1940.02,5151.00
1941.26,5153.00
1942.50,5167.00
1943.75,5108.00
1944.99,5094.00
1946.22,5066.00
1947.46,4980.00
1948.70,5021.00
1949.94,5026.00
1951.17,4961.00
1952.41,4910.00
1953.64,4901.00
1954.87,4898.00
1956.10,4938.00
1957.33,4895.00
1958.56,4892.00
1959.79,4864.00
1961.02,4797.00
1962.25,4759.00
1963.47,4823.00
1964.70,4761.00
1965.92,4851.00
1967.14,4752.00
1968.36,4778.00
1969.58,4689.00
1970.80,4672.00
1972.02,4659.00
1973.24,4626.00
1974.46,4653.00
1975.67,4645.00
1976.89,4600.00
1978.10,4589.00
1979.31,4592.00
1980.52,4592.00
1981.73,4531.00
1982.94,4543.00
1984.15,4501.00
1985.36,4528.00
1986.57,4437.00
1987.77,4505.00
1988.98,4437.00
1990.18,4443.00
1991.38,4406.00
1992.58,4406.00
1993.78,4376.00
1994.98,4399.00
1996.18,4366.00
1997.38,4273.00
1998.58,4299.00
1999.77,4328.00
2000.97,4275.00
2002.16,4262.00
