Integration Time,200
Timestamp,2023-07-10 13_33_42.772000
Note,
Temperature,9.96
CCD C0,801.50982666
CCD C1,0.141540005803
CCD C2,-5.58820011065e-06
CCD C3,-8.47330028364e-09
CCD Offset,0
CCD Gain,NA
Laser Wavelength,785.0
Laser Enable,0
Laser Power,100
Laser Temperature,0.00
Pixel Count,1024

Wavenumber,Spectrum
262.40,-67.00
264.60,-55.00
266.80,-29.00
269.01,-33.00
271.21,-25.00
273.40,-40.00
275.60,-10.00
277.80,-4.00
280.00,-4.00
282.19,48.00
284.38,70.00
286.58,108.00
288.77,169.00
290.96,251.00
293.15,359.00
295.34,521.00
297.53,666.00
299.72,848.00
301.90,1035.00
304.09,1396.00
306.27,1838.00
308.46,2316.00
310.64,2791.00
312.82,3309.00
315.00,3829.00
317.18,4201.00
319.36,4585.00
321.54,4734.00
323.72,4900.00
325.89,4960.00
328.07,4875.00
330.24,4766.00
332.42,4722.00
334.59,4657.00
336.76,4616.00
338.93,4569.00
341.10,4471.00
343.27,4434.00
345.43,4506.00
347.60,4436.00
349.77,4520.00
351.93,4520.00
354.09,4641.00
356.26,4617.00
358.42,4641.00
360.58,4735.00
362.74,4722.00
364.90,4860.00
367.06,4880.00
369.21,4990.00
371.37,5117.00
373.52,5220.00
375.68,5341.00
377.83,5353.00
379.98,5430.00
382.13,5385.00
384.28,5404.00
386.43,5282.00
388.58,5277.00
390.73,5233.00
392.87,5215.00
395.02,5233.00
397.16,5203.00
399.31,5268.00
401.45,5252.00
403.59,5329.00
405.73,5433.00
407.87,5465.00
410.01,5447.00
412.15,5512.00
414.28,5553.00
416.42,5606.00
418.55,5622.00
420.69,5500.00
422.82,5527.00
424.95,5521.00
427.08,5454.00
429.21,5405.00
431.34,5409.00
433.47,5504.00
435.60,5549.00
437.72,5658.00
439.85,5707.00
441.97,5785.00
444.10,5900.00
446.22,5890.00
448.34,5918.00
450.46,5905.00
452.58,5771.00
454.70,5690.00
456.81,5723.00
458.93,5703.00
461.05,5691.00
463.16,5588.00
465.27,5576.00
467.39,5614.00
469.50,5368.00
471.61,5793.00
473.72,5823.00
475.83,5962.00
477.93,6133.00
480.04,6122.00
482.15,6274.00
484.25,6372.00
486.35,6415.00
488.46,6373.00
490.56,6251.00
492.66,6251.00
494.76,6257.00
496.86,6424.00
498.96,6757.00
501.05,6976.00
503.15,7206.00
505.24,7564.00
507.34,7834.00
509.43,8109.00
511.52,8376.00
513.61,8945.00
515.70,10082.00
517.79,12221.00
519.88,15274.00
521.97,18271.00
524.06,18598.00
526.14,15959.00
528.23,12407.00
530.31,9894.00
532.39,9066.00
534.47,9073.00
536.55,9154.00
538.63,8961.00
540.71,8632.00
542.79,8421.00
544.87,8294.00
546.94,8621.00
549.02,9672.00
551.09,11641.00
553.16,14159.00
555.23,16004.00
557.30,16191.00
559.37,15158.00
561.44,13904.00
563.51,12792.00
565.58,11658.00
567.64,10537.00
569.71,9356.00
571.77,8462.00
573.84,8011.00
575.90,7972.00
577.96,8076.00
580.02,8066.00
582.08,8246.00
584.14,8165.00
586.19,7961.00
588.25,7783.00
590.30,7525.00
592.36,7571.00
594.41,7581.00
596.46,7700.00
598.51,7941.00
600.56,8098.00
602.61,8066.00
604.66,7990.00
606.71,8070.00
608.76,8453.00
610.80,8901.00
612.85,9655.00
614.89,10269.00
616.93,10632.00
618.97,10029.00
621.01,9327.00
623.05,8540.00
625.09,8231.00
627.13,8084.00
629.17,7948.00
631.20,8370.00
633.24,8741.00
635.27,9222.00
637.30,9658.00
639.33,9875.00
641.36,9748.00
643.39,9445.00
645.42,8946.00
647.45,8676.00
649.48,8284.00
651.50,8072.00
653.53,7971.00
655.55,7832.00
657.58,7830.00
659.60,7900.00
661.62,7879.00
663.64,7911.00
665.66,7973.00
667.68,8100.00
669.69,8089.00
671.71,8226.00
673.72,8274.00
675.74,8371.00
677.75,8539.00
679.76,8689.00
681.77,8859.00
683.78,9059.00
685.79,9101.00
687.80,9130.00
689.81,9094.00
691.81,9057.00
693.82,9211.00
695.82,9253.00
697.83,9356.00
699.83,9427.00
701.83,9339.00
703.83,9348.00
705.83,9335.00
707.83,9605.00
709.83,10055.00
711.82,11176.00
713.82,12378.00
715.81,12700.00
717.81,12080.00
719.80,10617.00
721.79,9603.00
723.78,9055.00
725.77,8857.00
727.76,8903.00
729.75,9032.00
731.73,9008.00
733.72,9002.00
735.70,8956.00
737.69,9041.00
739.67,8958.00
741.65,9066.00
743.63,9124.00
745.61,9287.00
747.59,9406.00
749.57,9632.00
751.55,9715.00
753.52,9808.00
755.50,9881.00
757.47,9835.00
759.44,9963.00
761.41,9947.00
763.39,10432.00
765.36,10282.00
767.32,10769.00
769.29,10984.00
771.26,11062.00
773.22,11022.00
775.19,11053.00
777.15,10859.00
779.12,10718.00
781.08,10611.00
783.04,10568.00
785.00,10485.00
786.96,10613.00
788.92,11033.00
790.87,11657.00
792.83,12910.00
794.79,14281.00
796.74,15624.00
798.69,16489.00
800.64,16771.00
802.60,16560.00
804.55,16181.00
806.50,15508.00
808.44,14555.00
810.39,13602.00
812.34,12782.00
814.28,12367.00
816.23,12748.00
818.17,13397.00
820.11,14081.00
822.05,14201.00
823.99,13772.00
825.93,13168.00
827.87,12603.00
829.81,12089.00
831.75,11960.00
833.68,11798.00
835.62,11690.00
837.55,11723.00
839.48,11796.00
841.41,11796.00
843.34,11867.00
845.27,11710.00
847.20,11589.00
849.13,11482.00
851.06,11460.00
852.98,11471.00
854.91,11593.00
856.83,11694.00
858.75,11915.00
860.67,12137.00
862.59,12152.00
864.51,12154.00
866.43,11985.00
868.35,11794.00
870.27,11494.00
872.18,11222.00
874.10,10948.00
876.01,10900.00
877.92,10756.00
879.84,10838.00
881.75,10977.00
883.66,11106.00
885.56,11322.00
887.47,11559.00
889.38,11745.00
891.28,12110.00
893.19,12320.00
895.09,12616.00
897.00,12719.00
898.90,13085.00
900.80,13387.00
902.70,13526.00
904.60,13693.00
906.50,13986.00
908.39,14083.00
910.29,14327.00
912.18,14340.00
914.08,14285.00
915.97,14112.00
917.86,14032.00
919.75,13996.00
921.64,14253.00
923.53,14509.00
925.42,15192.00
927.31,15835.00
929.19,16794.00
931.08,18072.00
932.96,19293.00
934.85,20739.00
936.73,21985.00
938.61,22362.00
940.49,21719.00
942.37,20077.00
944.25,18061.00
946.12,16254.00
948.00,15144.00
949.87,14145.00
951.75,13592.00
953.62,13280.00
955.49,12962.00
957.37,12666.00
959.24,12500.00
961.10,12401.00
962.97,12346.00
964.84,12293.00
966.71,12280.00
968.57,12255.00
970.44,12118.00
972.30,12323.00
974.16,12356.00
976.02,12497.00
977.88,12513.00
979.74,12584.00
981.60,12633.00
983.46,12972.00
985.31,13101.00
987.17,13343.00
989.02,13735.00
990.88,14201.00
992.73,14606.00
994.58,15468.00
996.43,16248.00
998.28,17251.00
1000.13,18356.00
1001.98,18911.00
1003.82,19056.00
1005.67,18617.00
1007.51,17823.00
1009.36,17052.00
1011.20,16335.00
1013.04,16002.00
1014.88,16174.00
1016.72,16416.00
1018.56,16966.00
1020.40,17095.00
1022.23,16917.00
1024.07,16400.00
1025.90,16006.00
1027.74,15664.00
1029.57,15465.00
1031.40,15611.00
1033.23,15854.00
1035.06,16326.00
1036.89,17047.00
1038.72,18170.00
1040.54,19172.00
1042.37,20404.00
1044.19,21638.00
1046.02,22429.00
1047.84,23361.00
1049.66,24339.00
1051.48,24797.00
1053.30,24892.00
1055.12,24529.00
1056.94,24122.00
1058.76,23798.00
1060.57,23477.00
1062.39,23108.00
1064.20,22476.00
1066.01,21957.00
1067.82,21105.00
1069.63,20175.00
1071.44,19115.00
1073.25,18825.00
1075.06,18552.00
1076.87,18862.00
1078.67,19187.00
1080.48,19684.00
1082.28,20566.00
1084.08,21312.00
1085.89,22172.00
1087.69,23247.00
1089.49,23966.00
1091.29,24658.00
1093.08,25016.00
1094.88,25158.00
1096.68,25400.00
1098.47,25546.00
1100.27,25683.00
1102.06,25923.00
1103.85,25737.00
1105.64,25748.00
1107.43,25749.00
1109.22,26159.00
1111.01,26731.00
1112.79,27415.00
1114.58,28403.00
1116.37,29897.00
1118.15,31704.00
1119.93,33590.00
1121.71,33797.00
1123.49,32494.00
1125.27,30731.00
1127.05,29262.00
1128.83,28813.00
1130.61,29355.00
1132.38,29682.00
1134.16,29483.00
1135.93,28729.00
1137.71,27232.00
1139.48,25442.00
1141.25,23840.00
1143.02,22345.00
1144.79,21617.00
1146.56,21441.00
1148.32,22111.00
1150.09,22851.00
1151.86,23764.00
1153.62,24634.00
1155.38,25154.00
1157.14,25121.00
1158.91,24976.00
1160.67,24755.00
1162.42,24697.00
1164.18,24828.00
1165.94,25106.00
1167.70,25035.00
1169.45,25010.00
1171.21,25067.00
1172.96,25189.00
1174.71,25610.00
1176.46,26192.00
1178.21,26203.00
1179.96,25739.00
1181.71,24925.00
1183.46,23380.00
1185.20,21963.00
1186.95,21053.00
1188.69,20649.00
1190.44,20603.00
1192.18,21000.00
1193.92,22135.00
1195.66,23979.00
1197.40,26905.00
1199.14,31155.00
1200.87,36688.00
1202.61,42582.00
1204.35,46999.00
1206.08,48866.00
1207.81,46941.00
1209.55,42771.00
1211.28,36875.00
1213.01,31322.00
1214.74,26974.00
1216.46,24010.00
1218.19,22423.00
1219.92,21433.00
1221.64,21095.00
1223.37,21031.00
1225.09,21304.00
1226.81,21789.00
1228.53,22510.00
1230.26,23235.00
1231.97,24087.00
1233.69,24482.00
1235.41,24877.00
1237.13,24710.00
1238.84,24323.00
1240.56,23695.00
1242.27,23414.00
1243.98,23407.00
1245.69,23575.00
1247.40,23988.00
1249.11,24544.00
1250.82,24534.00
1252.53,24164.00
1254.24,23817.00
1255.94,23575.00
1257.65,23454.00
1259.35,23732.00
1261.05,23889.00
1262.75,24232.00
1264.45,24171.00
1266.15,24057.00
1267.85,23950.00
1269.55,24053.00
1271.25,24601.00
1272.94,25046.00
1274.64,25563.00
1276.33,25969.00
1278.02,26087.00
1279.71,26206.00
1281.40,26195.00
1283.09,26277.00
1284.78,26142.00
1286.47,25600.00
1288.16,24932.00
1289.84,23973.00
1291.53,23563.00
1293.21,23148.00
1294.89,23471.00
1296.57,23773.00
1298.25,24227.00
1299.93,24282.00
1301.61,23855.00
1303.29,23159.00
1304.97,22300.00
1306.64,21342.00
1308.32,20664.00
1309.99,20199.00
1311.66,19901.00
1313.33,19668.00
1315.01,19434.00
1316.67,19329.00
1318.34,19256.00
1320.01,19147.00
1321.68,19195.00
1323.34,19293.00
1325.01,19625.00
1326.67,19870.00
1328.33,20094.00
1330.00,20357.00
1331.66,20669.00
1333.32,21009.00
1334.98,21656.00
1336.63,22149.00
1338.29,22887.00
1339.95,23901.00
1341.60,24884.00
1343.25,25787.00
1344.91,26526.00
1346.56,27114.00
1348.21,27261.00
1349.86,27220.00
1351.51,26840.00
1353.16,26703.00
1354.80,26964.00
1356.45,27613.00
1358.09,28686.00
1359.74,30491.00
1361.38,32836.00
1363.02,35300.00
1364.66,37472.00
1366.30,39133.00
1367.94,39818.00
1369.58,39601.00
1371.22,38332.00
1372.85,36180.00
1374.49,34462.00
1376.12,33451.00
1377.75,33303.00
1379.38,33271.00
1381.02,33508.00
1382.65,32890.00
1384.27,31769.00
1385.90,30286.00
1387.53,28995.00
1389.15,27883.00
1390.78,27544.00
1392.40,27646.00
1394.03,27719.00
1395.65,28275.00
1397.27,29098.00
1398.89,30093.00
1400.51,30934.00
1402.13,32113.00
1403.74,33114.00
1405.36,33935.00
1406.97,34366.00
1408.59,34486.00
1410.20,34468.00
1411.81,33879.00
1413.42,33066.00
1415.03,31967.00
1416.64,30888.00
1418.25,29419.00
1419.86,27951.00
1421.46,26846.00
1423.07,25319.00
1424.67,24446.00
1426.28,23715.00
1427.88,23428.00
1429.48,23149.00
1431.08,23243.00
1432.68,23448.00
1434.28,23085.00
1435.87,22885.00
1437.47,22556.00
1439.06,22444.00
1440.66,22113.00
1442.25,21635.00
1443.84,21070.00
1445.43,20654.00
1447.02,19977.00
1448.61,19813.00
1450.20,19649.00
1451.79,19611.00
1453.37,19756.00
1454.96,19943.00
1456.54,20300.00
1458.13,20956.00
1459.71,21801.00
1461.29,23308.00
1462.87,25608.00
1464.45,28199.00
1466.03,30972.00
1467.60,31617.00
1469.18,30360.00
1470.76,27192.00
1472.33,24045.00
1473.90,21589.00
1475.48,19986.00
1477.05,19063.00
1478.62,18615.00
1480.19,18605.00
1481.75,18683.00
1483.32,18805.00
1484.89,18908.00
1486.45,18498.00
1488.02,17966.00
1489.58,17427.00
1491.14,16977.00
1492.70,16717.00
1494.26,16651.00
1495.82,16689.00
1497.38,16746.00
1498.94,16974.00
1500.50,17152.00
1502.05,17340.00
1503.61,17570.00
1505.16,18154.00
1506.71,18370.00
1508.26,18882.00
1509.81,19265.00
1511.36,19786.00
1512.91,20430.00
1514.46,20970.00
1516.00,21955.00
1517.55,22963.00
1519.09,23928.00
1520.64,25161.00
1522.18,26283.00
1523.72,27123.00
1525.26,27643.00
1526.80,27618.00
1528.34,27331.00
1529.88,26176.00
1531.41,25021.00
1532.95,23686.00
1534.48,22360.00
1536.02,21169.00
1537.55,20153.00
1539.08,19476.00
1540.61,18839.00
1542.14,18454.00
1543.67,18180.00
1545.19,18090.00
1546.72,17866.00
1548.25,17773.00
1549.77,17498.00
1551.29,17242.00
1552.82,16957.00
1554.34,16646.00
1555.86,16349.00
1557.38,15889.00
1558.90,15765.00
1560.41,15382.00
1561.93,15232.00
1563.45,14910.00
1564.96,14872.00
1566.47,14808.00
1567.99,14671.00
1569.50,14756.00
1571.01,15047.00
1572.52,15341.00
1574.03,15525.00
1575.53,16126.00
1577.04,16735.00
1578.55,17232.00
1580.05,17838.00
1581.55,18350.00
1583.06,18715.00
1584.56,18650.00
1586.06,18364.00
1587.56,17950.00
1589.06,17306.00
1590.56,16785.00
1592.05,16349.00
1593.55,15879.00
1595.04,15677.00
1596.54,15622.00
1598.03,15723.00
1599.52,15693.00
1601.01,15678.00
1602.50,15268.00
1603.99,14938.00
1605.48,14431.00
1606.96,14227.00
1608.45,14199.00
1609.93,13900.00
1611.42,13970.00
1612.90,14190.00
1614.38,14117.00
1615.86,14064.00
1617.34,13849.00
1618.82,13544.00
1620.30,13164.00
1621.78,12877.00
1623.25,12490.00
1624.73,12272.00
1626.20,12218.00
1627.67,12002.00
1629.14,11899.00
1630.62,11785.00
1632.08,11806.00
1633.55,11633.00
1635.02,11734.00
1636.49,11658.00
1637.95,11726.00
1639.42,11648.00
1640.88,11643.00
1642.35,11555.00
1643.81,11479.00
1645.27,11532.00
1646.73,11570.00
1648.19,11522.00
1649.64,11437.00
1651.10,11391.00
1652.56,11340.00
1654.01,11368.00
1655.47,11243.00
1656.92,11224.00
1658.37,11130.00
1659.82,11106.00
1661.27,11013.00
1662.72,11071.00
1664.17,10866.00
1665.62,10880.00
1667.06,10847.00
1668.51,10788.00
1669.95,10745.00
1671.39,10775.00
1672.84,10767.00
1674.28,10631.00
1675.72,10575.00
1677.16,10583.00
1678.59,10566.00
1680.03,10459.00
1681.47,10548.00
1682.90,10444.00
1684.34,10453.00
1685.77,10368.00
1687.20,10328.00
1688.63,10322.00
1690.06,10261.00
1691.49,10185.00
1692.92,10136.00
1694.35,10069.00
1695.77,10059.00
1697.20,9957.00
1698.62,9923.00
1700.04,9924.00
1701.47,9926.00
1702.89,9715.00
1704.31,9765.00
1705.73,9658.00
1707.14,9598.00
1708.56,9637.00
1709.98,9493.00
1711.39,9520.00
1712.81,9487.00
1714.22,9525.00
1715.63,9429.00
1717.04,9473.00
1718.45,9472.00
1719.86,9476.00
1721.27,9512.00
1722.68,9445.00
1724.08,9424.00
1725.49,9500.00
1726.89,9404.00
1728.30,9494.00
1729.70,9420.00
1731.10,9388.00
1732.50,9300.00
1733.90,9340.00
1735.30,9204.00
1736.69,9171.00
1738.09,9074.00
1739.49,9023.00
1740.88,8836.00
1742.27,8758.00
1743.67,8792.00
1745.06,8701.00
1746.45,8688.00
1747.84,8680.00
1749.23,8516.00
1750.61,8622.00
1752.00,8566.00
1753.38,8599.00
1754.77,8534.00
1756.15,8642.00
1757.53,8561.00
1758.92,8665.00
1760.30,8549.00
1761.68,8572.00
1763.05,8473.00
1764.43,8393.00
1765.81,8414.00
1767.18,8338.00
1768.56,8229.00
1769.93,8214.00
1771.30,8040.00
1772.67,8059.00
1774.05,8013.00
1775.41,7974.00
1776.78,7923.00
1778.15,7748.00
1779.52,7777.00
1780.88,7731.00
1782.25,7674.00
1783.61,7608.00
1784.97,7552.00
1786.33,7619.00
1787.69,7596.00
1789.05,7600.00
1790.41,7461.00
1791.77,7533.00
1793.13,7477.00
1794.48,7488.00
1795.84,7406.00
1797.19,7392.00
1798.54,7378.00
1799.89,7312.00
1801.25,7312.00
1802.59,7299.00
1803.94,7257.00
1805.29,7271.00
1806.64,7230.00
1807.98,7208.00
1809.33,7160.00
1810.67,7141.00
1812.01,7118.00
1813.36,7027.00
1814.70,7065.00
1816.04,7107.00
1817.37,7118.00
1818.71,7060.00
1820.05,7047.00
1821.38,7071.00
1822.72,7042.00
1824.05,6969.00
1825.39,6962.00
1826.72,6945.00
1828.05,6858.00
1829.38,6765.00
1830.71,6757.00
1832.03,6700.00
1833.36,6795.00
1834.69,6647.00
1836.01,6759.00
1837.34,6731.00
1838.66,6662.00
1839.98,6677.00
1841.30,6689.00
1842.62,6628.00
1843.94,6620.00
1845.26,6654.00
1846.57,6594.00
1847.89,6567.00
1849.20,6481.00
1850.52,6527.00
1851.83,6512.00
1853.14,6426.00
1854.45,6398.00
1855.76,6424.00
1857.07,6383.00
1858.38,6392.00
1859.69,6319.00
1860.99,6266.00
1862.30,6244.00
1863.60,6237.00
1864.90,6280.00
1866.21,6226.00
1867.51,6186.00
1868.81,6192.00
1870.11,6145.00
1871.40,6038.00
1872.70,6085.00
1874.00,6087.00
1875.29,6028.00
1876.59,5965.00
1877.88,5991.00
1879.17,5949.00
1880.46,5983.00
1881.75,5940.00
1883.04,5878.00
1884.33,5832.00
1885.62,5849.00
1886.90,5888.00
1888.19,5848.00
1889.47,5783.00
1890.75,5791.00
1892.04,5811.00
1893.32,5776.00
1894.60,5720.00
1895.88,5770.00
1897.15,5771.00
1898.43,5731.00
1899.71,5637.00
1900.98,5586.00
1902.26,5629.00
1903.53,5607.00
1904.80,5577.00
1906.07,5468.00
1907.34,5538.00
1908.61,5486.00
1909.88,5524.00
1911.15,5435.00
1912.41,5442.00
1913.68,5424.00
1914.94,5427.00
1916.21,5462.00
1917.47,5473.00
1918.73,5384.00
1919.99,5391.00
1921.25,5388.00
1922.51,5376.00
1923.76,5422.00
1925.02,5328.00
1926.28,5294.00
1927.53,5324.00
1928.78,5243.00
1930.04,5287.00
1931.29,5256.00
1932.54,5129.00
1933.79,5164.00
1935.03,5148.00
1936.28,5098.00
1937.53,5031.00
1938.77,4994.00
1940.02,4984.00
1941.26,4963.00
1942.50,4969.00
1943.75,4876.00
1944.99,4915.00
1946.22,4883.00
1947.46,4819.00
1948.70,4804.00
1949.94,4773.00
1951.17,4712.00
1952.41,4733.00
1953.64,4724.00
1954.87,4748.00
1956.10,4746.00
1957.33,4663.00
1958.56,4710.00
1959.79,4760.00
1961.02,4628.00
1962.25,4577.00
1963.47,4619.00
1964.70,4609.00
1965.92,4573.00
1967.14,4551.00
1968.36,4573.00
1969.58,4556.00
1970.80,4516.00
1972.02,4491.00
1973.24,4453.00
1974.46,4465.00
1975.67,4415.00
1976.89,4416.00
1978.10,4431.00
1979.31,4376.00
1980.52,4360.00
1981.73,4307.00
1982.94,4355.00
1984.15,4358.00
1985.36,4338.00
1986.57,4323.00
1987.77,4294.00
1988.98,4201.00
1990.18,4291.00
1991.38,4216.00
1992.58,4237.00
1993.78,4191.00
1994.98,4166.00
1996.18,4162.00
1997.38,4104.00
1998.58,4109.00
1999.77,4130.00
2000.97,4088.00
2002.16,4060.00
