Integration Time,4000
Timestamp,2022-12-09 10_28_12.388000
Note,
Temperature,9.97
CCD C0,801.50982666
CCD C1,0.141540005803
CCD C2,-5.58820011065e-06
CCD C3,-8.47330028364e-09
CCD Offset,0
CCD Gain,NA
Laser Wavelength,785.0
Laser Enable,0
Laser Power,100
Laser Temperature,0.00
Pixel Count,1024

Wavenumber,Spectrum
262.40,-17.00
264.60,-17.00
266.80,-10.00
269.01,4.00
271.21,0.00
273.40,-13.00
275.60,4.00
277.80,-13.00
280.00,2.00
282.19,-8.00
284.38,9.00
286.58,-19.00
288.77,-30.00
290.96,29.00
293.15,21.00
295.34,8.00
297.53,47.00
299.72,71.00
301.90,63.00
304.09,40.00
306.27,111.00
308.46,112.00
310.64,166.00
312.82,163.00
315.00,203.00
317.18,230.00
319.36,275.00
321.54,278.00
323.72,301.00
325.89,319.00
328.07,331.00
330.24,280.00
332.42,320.00
334.59,344.00
336.76,328.00
338.93,343.00
341.10,316.00
343.27,316.00
345.43,339.00
347.60,316.00
349.77,314.00
351.93,336.00
354.09,321.00
356.26,356.00
358.42,331.00
360.58,348.00
362.74,367.00
364.90,357.00
367.06,394.00
369.21,377.00
371.37,373.00
373.52,388.00
375.68,384.00
377.83,401.00
379.98,369.00
382.13,412.00
384.28,399.00
386.43,359.00
388.58,432.00
390.73,426.00
392.87,447.00
395.02,415.00
397.16,407.00
399.31,453.00
401.45,472.00
403.59,506.00
405.73,506.00
407.87,556.00
410.01,527.00
412.15,571.00
414.28,603.00
416.42,696.00
418.55,728.00
420.69,881.00
422.82,961.00
424.95,1044.00
427.08,1166.00
429.21,1259.00
431.34,1336.00
433.47,1358.00
435.60,1359.00
437.72,1294.00
439.85,1208.00
441.97,1128.00
444.10,1023.00
446.22,968.00
448.34,929.00
450.46,799.00
452.58,799.00
454.70,710.00
456.81,671.00
458.93,635.00
461.05,573.00
463.16,546.00
465.27,516.00
467.39,524.00
469.50,504.00
471.61,482.00
473.72,455.00
475.83,449.00
477.93,487.00
480.04,476.00
482.15,473.00
484.25,472.00
486.35,459.00
488.46,448.00
490.56,470.00
492.66,462.00
494.76,447.00
496.86,409.00
498.96,394.00
501.05,390.00
503.15,384.00
505.24,407.00
507.34,360.00
509.43,350.00
511.52,326.00
513.61,314.00
515.70,363.00
517.79,335.00
519.88,340.00
521.97,310.00
524.06,329.00
526.14,329.00
528.23,336.00
530.31,352.00
532.39,327.00
534.47,284.00
536.55,325.00
538.63,312.00
540.71,316.00
542.79,324.00
544.87,270.00
546.94,302.00
549.02,299.00
551.09,320.00
553.16,294.00
555.23,310.00
557.30,304.00
559.37,338.00
561.44,297.00
563.51,316.00
565.58,268.00
567.64,306.00
569.71,297.00
571.77,306.00
573.84,301.00
575.90,287.00
577.96,285.00
580.02,302.00
582.08,278.00
584.14,301.00
586.19,297.00
588.25,259.00
590.30,298.00
592.36,317.00
594.41,318.00
596.46,309.00
598.51,318.00
600.56,274.00
602.61,297.00
604.66,316.00
606.71,314.00
608.76,291.00
610.80,300.00
612.85,285.00
614.89,306.00
616.93,272.00
618.97,308.00
621.01,308.00
623.05,296.00
625.09,306.00
627.13,268.00
629.17,311.00
631.20,287.00
633.24,320.00
635.27,307.00
637.30,329.00
639.33,297.00
641.36,279.00
643.39,302.00
645.42,285.00
647.45,301.00
649.48,270.00
651.50,314.00
653.53,245.00
655.55,304.00
657.58,264.00
659.60,299.00
661.62,299.00
663.64,307.00
665.66,295.00
667.68,289.00
669.69,293.00
671.71,314.00
673.72,276.00
675.74,299.00
677.75,278.00
679.76,304.00
681.77,278.00
683.78,277.00
685.79,295.00
687.80,299.00
689.81,293.00
691.81,286.00
693.82,298.00
695.82,281.00
697.83,289.00
699.83,316.00
701.83,307.00
703.83,291.00
705.83,328.00
707.83,282.00
709.83,329.00
711.82,293.00
713.82,295.00
715.81,289.00
717.81,305.00
719.80,289.00
721.79,291.00
723.78,289.00
725.77,318.00
727.76,293.00
729.75,316.00
731.73,250.00
733.72,260.00
735.70,315.00
737.69,321.00
739.67,287.00
741.65,293.00
743.63,318.00
745.61,290.00
747.59,296.00
749.57,298.00
751.55,302.00
753.52,280.00
755.50,304.00
757.47,262.00
759.44,301.00
761.41,281.00
763.39,278.00
765.36,262.00
767.32,307.00
769.29,319.00
771.26,305.00
773.22,297.00
775.19,324.00
777.15,318.00
779.12,348.00
781.08,329.00
783.04,342.00
785.00,318.00
786.96,342.00
788.92,359.00
790.87,352.00
792.83,354.00
794.79,342.00
796.74,367.00
798.69,399.00
800.64,411.00
802.60,455.00
804.55,481.00
806.50,530.00
808.44,617.00
810.39,704.00
812.34,867.00
814.28,1130.00
816.23,1442.00
818.17,1638.00
820.11,1528.00
822.05,1191.00
823.99,805.00
825.93,623.00
827.87,575.00
829.81,535.00
831.75,497.00
833.68,521.00
835.62,512.00
837.55,470.00
839.48,530.00
841.41,533.00
843.34,533.00
845.27,539.00
847.20,571.00
849.13,562.00
851.06,634.00
852.98,664.00
854.91,725.00
856.83,776.00
858.75,861.00
860.67,946.00
862.59,1080.00
864.51,1282.00
866.43,1501.00
868.35,1858.00
870.27,2292.00
872.18,2991.00
874.10,3976.00
876.01,5409.00
877.92,7282.00
879.84,9114.00
881.75,10684.00
883.66,10859.00
885.56,10034.00
887.47,8274.00
889.38,6474.00
891.28,4800.00
893.19,3552.00
895.09,2625.00
897.00,2003.00
898.90,1649.00
900.80,1318.00
902.70,1159.00
904.60,1016.00
906.50,898.00
908.39,805.00
910.29,761.00
912.18,656.00
914.08,662.00
915.97,630.00
917.86,607.00
919.75,571.00
921.64,531.00
923.53,491.00
925.42,509.00
927.31,501.00
929.19,466.00
931.08,497.00
932.96,478.00
934.85,490.00
936.73,501.00
938.61,512.00
940.49,493.00
942.37,463.00
944.25,489.00
946.12,481.00
948.00,502.00
949.87,538.00
951.75,535.00
953.62,544.00
955.49,544.00
957.37,470.00
959.24,447.00
961.10,405.00
962.97,411.00
964.84,388.00
966.71,360.00
968.57,350.00
970.44,366.00
972.30,392.00
974.16,347.00
976.02,346.00
977.88,334.00
979.74,356.00
981.60,375.00
983.46,392.00
985.31,358.00
987.17,346.00
989.02,373.00
990.88,369.00
992.73,393.00
994.58,420.00
996.43,428.00
998.28,458.00
1000.13,466.00
1001.98,506.00
1003.82,538.00
1005.67,527.00
1007.51,504.00
1009.36,590.00
1011.20,620.00
1013.04,662.00
1014.88,687.00
1016.72,738.00
1018.56,822.00
1020.40,856.00
1022.23,936.00
1024.07,1033.00
1025.90,1160.00
1027.74,1238.00
1029.57,1377.00
1031.40,1527.00
1033.23,1619.00
1035.06,1735.00
1036.89,1845.00
1038.72,2066.00
1040.54,2254.00
1042.37,2473.00
1044.19,2846.00
1046.02,2977.00
1047.84,3219.00
1049.66,3388.00
1051.48,3462.00
1053.30,3396.00
1055.12,3253.00
1056.94,2943.00
1058.76,2643.00
1060.57,2368.00
1062.39,2149.00
1064.20,1916.00
1066.01,1781.00
1067.82,1708.00
1069.63,1680.00
1071.44,1674.00
1073.25,1725.00
1075.06,1754.00
1076.87,1811.00
1078.67,1862.00
1080.48,2020.00
1082.28,2198.00
1084.08,2354.00
1085.89,2585.00
1087.69,2800.00
1089.49,3019.00
1091.29,3291.00
1093.08,3453.00
1094.88,3504.00
1096.68,3496.00
1098.47,3301.00
1100.27,3048.00
1102.06,2697.00
1103.85,2374.00
1105.64,2155.00
1107.43,1817.00
1109.22,1754.00
1111.01,1663.00
1112.79,1585.00
1114.58,1532.00
1116.37,1495.00
1118.15,1415.00
1119.93,1392.00
1121.71,1318.00
1123.49,1292.00
1125.27,1250.00
1127.05,1225.00
1128.83,1159.00
1130.61,1066.00
1132.38,1012.00
1134.16,924.00
1135.93,864.00
1137.71,801.00
1139.48,709.00
1141.25,687.00
1143.02,626.00
1144.79,618.00
1146.56,596.00
1148.32,605.00
1150.09,594.00
1151.86,542.00
1153.62,556.00
1155.38,519.00
1157.14,532.00
1158.91,527.00
1160.67,535.00
1162.42,514.00
1164.18,502.00
1165.94,451.00
1167.70,453.00
1169.45,404.00
1171.21,409.00
1172.96,379.00
1174.71,389.00
1176.46,373.00
1178.21,361.00
1179.96,356.00
1181.71,314.00
1183.46,337.00
1185.20,324.00
1186.95,311.00
1188.69,312.00
1190.44,282.00
1192.18,315.00
1193.92,320.00
1195.66,300.00
1197.40,318.00
1199.14,297.00
1200.87,312.00
1202.61,308.00
1204.35,296.00
1206.08,300.00
1207.81,331.00
1209.55,306.00
1211.28,291.00
1213.01,320.00
1214.74,306.00
1216.46,308.00
1218.19,320.00
1219.92,328.00
1221.64,268.00
1223.37,340.00
1225.09,342.00
1226.81,329.00
1228.53,350.00
1230.26,377.00
1231.97,390.00
1233.69,409.00
1235.41,429.00
1237.13,422.00
1238.84,405.00
1240.56,419.00
1242.27,477.00
1243.98,485.00
1245.69,480.00
1247.40,523.00
1249.11,499.00
1250.82,557.00
1252.53,594.00
1254.24,610.00
1255.94,616.00
1257.65,696.00
1259.35,736.00
1261.05,786.00
1262.75,862.00
1264.45,919.00
1266.15,1079.00
1267.85,1203.00
1269.55,1339.00
1271.25,1495.00
1272.94,1656.00
1274.64,1733.00
1276.33,1754.00
1278.02,1758.00
1279.71,1677.00
1281.40,1536.00
1283.09,1393.00
1284.78,1222.00
1286.47,1069.00
1288.16,1016.00
1289.84,921.00
1291.53,849.00
1293.21,782.00
1294.89,722.00
1296.57,649.00
1298.25,676.00
1299.93,666.00
1301.61,624.00
1303.29,628.00
1304.97,613.00
1306.64,580.00
1308.32,597.00
1309.99,551.00
1311.66,586.00
1313.33,559.00
1315.01,530.00
1316.67,519.00
1318.34,532.00
1320.01,530.00
1321.68,542.00
1323.34,529.00
1325.01,506.00
1326.67,536.00
1328.33,508.00
1330.00,510.00
1331.66,516.00
1333.32,549.00
1334.98,546.00
1336.63,552.00
1338.29,561.00
1339.95,571.00
1341.60,555.00
1343.25,564.00
1344.91,587.00
1346.56,559.00
1348.21,555.00
1349.86,565.00
1351.51,551.00
1353.16,584.00
1354.80,574.00
1356.45,556.00
1358.09,584.00
1359.74,578.00
1361.38,611.00
1363.02,580.00
1364.66,605.00
1366.30,619.00
1367.94,624.00
1369.58,667.00
1371.22,697.00
1372.85,712.00
1374.49,740.00
1376.12,753.00
1377.75,776.00
1379.38,810.00
1381.02,816.00
1382.65,862.00
1384.27,856.00
1385.90,904.00
1387.53,875.00
1389.15,911.00
1390.78,905.00
1392.40,902.00
1394.03,894.00
1395.65,896.00
1397.27,951.00
1398.89,901.00
1400.51,983.00
1402.13,982.00
1403.74,1012.00
1405.36,1027.00
1406.97,1107.00
1408.59,1132.00
1410.20,1128.00
1411.81,1219.00
1413.42,1204.00
1415.03,1263.00
1416.64,1300.00
1418.25,1331.00
1419.86,1361.00
1421.46,1371.00
1423.07,1423.00
1424.67,1496.00
1426.28,1533.00
1427.88,1585.00
1429.48,1653.00
1431.08,1712.00
1432.68,1800.00
1434.28,1906.00
1435.87,2052.00
1437.47,2204.00
1439.06,2312.00
1440.66,2532.00
1442.25,2776.00
1443.84,3067.00
1445.43,3350.00
1447.02,3645.00
1448.61,3960.00
1450.20,4276.00
1451.79,4520.00
1453.37,4661.00
1454.96,4643.00
1456.54,4570.00
1458.13,4387.00
1459.71,4020.00
1461.29,3614.00
1462.87,3447.00
1464.45,4103.00
1466.03,3795.00
1467.60,2581.00
1469.18,2378.00
1470.76,2230.00
1472.33,2122.00
1473.90,2071.00
1475.48,1978.00
1477.05,2003.00
1478.62,2025.00
1480.19,2014.00
1481.75,2055.00
1483.32,1967.00
1484.89,1957.00
1486.45,1832.00
1488.02,1735.00
1489.58,1611.00
1491.14,1565.00
1492.70,1431.00
1494.26,1337.00
1495.82,1209.00
1497.38,1144.00
1498.94,1109.00
1500.50,1001.00
1502.05,967.00
1503.61,887.00
1505.16,842.00
1506.71,801.00
1508.26,799.00
1509.81,766.00
1511.36,755.00
1512.91,696.00
1514.46,665.00
1516.00,618.00
1517.55,663.00
1519.09,603.00
1520.64,600.00
1522.18,594.00
1523.72,577.00
1525.26,567.00
1526.80,573.00
1528.34,529.00
1529.88,515.00
1531.41,500.00
1532.95,477.00
1534.48,464.00
1536.02,470.00
1537.55,462.00
1539.08,449.00
1540.61,407.00
1542.14,409.00
1543.67,388.00
1545.19,420.00
1546.72,394.00
1548.25,356.00
1549.77,348.00
1551.29,368.00
1552.82,361.00
1554.34,363.00
1555.86,340.00
1557.38,359.00
1558.90,322.00
1560.41,325.00
1561.93,318.00
1563.45,287.00
1564.96,293.00
1566.47,280.00
1567.99,285.00
1569.50,259.00
1571.01,283.00
1572.52,283.00
1574.03,261.00
1575.53,255.00
1577.04,274.00
1578.55,253.00
1580.05,272.00
1581.55,251.00
1583.06,241.00
1584.56,217.00
1586.06,217.00
1587.56,238.00
1589.06,229.00
1590.56,231.00
1592.05,256.00
1593.55,225.00
1595.04,219.00
1596.54,219.00
1598.03,225.00
1599.52,210.00
1601.01,205.00
1602.50,224.00
1603.99,215.00
1605.48,223.00
1606.96,232.00
1608.45,223.00
1609.93,213.00
1611.42,213.00
1612.90,222.00
1614.38,210.00
1615.86,224.00
1617.34,196.00
1618.82,215.00
1620.30,207.00
1621.78,196.00
1623.25,173.00
1624.73,208.00
1626.20,213.00
1627.67,174.00
1629.14,193.00
1630.62,169.00
1632.08,164.00
1633.55,171.00
1635.02,148.00
1636.49,164.00
1637.95,179.00
1639.42,152.00
1640.88,177.00
1642.35,170.00
1643.81,133.00
1645.27,152.00
1646.73,149.00
1648.19,137.00
1649.64,137.00
1651.10,156.00
1652.56,127.00
1654.01,137.00
1655.47,156.00
1656.92,139.00
1658.37,143.00
1659.82,151.00
1661.27,110.00
1662.72,118.00
1664.17,112.00
1665.62,131.00
1667.06,124.00
1668.51,150.00
1669.95,134.00
1671.39,106.00
1672.84,137.00
1674.28,120.00
1675.72,135.00
1677.16,127.00
1678.59,133.00
1680.03,135.00
1681.47,128.00
1682.90,144.00
1684.34,135.00
1685.77,137.00
1687.20,156.00
1688.63,150.00
1690.06,146.00
1691.49,129.00
1692.92,106.00
1694.35,124.00
1695.77,125.00
1697.20,112.00
1698.62,156.00
1700.04,129.00
1701.47,143.00
1702.89,116.00
1704.31,152.00
1705.73,116.00
1707.14,114.00
1708.56,99.00
1709.98,127.00
1711.39,120.00
1712.81,135.00
1714.22,118.00
1715.63,92.00
1717.04,133.00
1718.45,114.00
1719.86,130.00
1721.27,126.00
1722.68,95.00
1724.08,127.00
1725.49,105.00
1726.89,86.00
1728.30,60.00
1729.70,114.00
1731.10,122.00
1732.50,118.00
1733.90,114.00
1735.30,93.00
1736.69,97.00
1738.09,102.00
1739.49,89.00
1740.88,88.00
1742.27,118.00
1743.67,105.00
1745.06,116.00
1746.45,108.00
1747.84,73.00
1749.23,88.00
1750.61,80.00
1752.00,74.00
1753.38,75.00
1754.77,86.00
1756.15,87.00
1757.53,107.00
1758.92,79.00
1760.30,72.00
1761.68,76.00
1763.05,86.00
1764.43,23.00
1765.81,93.00
1767.18,70.00
1768.56,80.00
1769.93,64.00
1771.30,88.00
1772.67,32.00
1774.05,66.00
1775.41,57.00
1776.78,57.00
1778.15,76.00
1779.52,78.00
1780.88,50.00
1782.25,67.00
1783.61,57.00
1784.97,38.00
1786.33,80.00
1787.69,72.00
1789.05,40.00
1790.41,51.00
1791.77,31.00
1793.13,64.00
1794.48,59.00
1795.84,38.00
1797.19,57.00
1798.54,103.00
1799.89,61.00
1801.25,40.00
1802.59,38.00
1803.94,40.00
1805.29,49.00
1806.64,85.00
1807.98,22.00
1809.33,59.00
1810.67,59.00
1812.01,46.00
1813.36,36.00
1814.70,44.00
1816.04,9.00
1817.37,48.00
1818.71,47.00
1820.05,30.00
1821.38,34.00
1822.72,46.00
1824.05,45.00
1825.39,25.00
1826.72,63.00
1828.05,46.00
1829.38,36.00
1830.71,48.00
1832.03,60.00
1833.36,55.00
1834.69,62.00
1836.01,63.00
1837.34,42.00
1838.66,48.00
1839.98,65.00
1841.30,53.00
1842.62,43.00
1843.94,53.00
1845.26,70.00
1846.57,36.00
1847.89,38.00
1849.20,44.00
1850.52,63.00
1851.83,46.00
1853.14,36.00
1854.45,42.00
1855.76,38.00
1857.07,47.00
1858.38,42.00
1859.69,29.00
1860.99,38.00
1862.30,40.00
1863.60,67.00
1864.90,60.00
1866.21,29.00
1867.51,53.00
1868.81,48.00
1870.11,21.00
1871.40,28.00
1872.70,65.00
1874.00,46.00
1875.29,32.00
1876.59,47.00
1877.88,61.00
1879.17,57.00
1880.46,46.00
1881.75,47.00
1883.04,28.00
1884.33,64.00
1885.62,47.00
1886.90,45.00
1888.19,45.00
1889.47,63.00
1890.75,24.00
1892.04,48.00
1893.32,36.00
1894.60,49.00
1895.88,38.00
1897.15,43.00
1898.43,38.00
1899.71,45.00
1900.98,64.00
1902.26,48.00
1903.53,50.00
1904.80,40.00
1906.07,66.00
1907.34,15.00
1908.61,55.00
1909.88,42.00
1911.15,25.00
1912.41,61.00
1913.68,57.00
1914.94,38.00
1916.21,57.00
1917.47,57.00
1918.73,46.00
1919.99,38.00
1921.25,38.00
1922.51,26.00
1923.76,40.00
1925.02,40.00
1926.28,21.00
1927.53,36.00
1928.78,49.00
1930.04,48.00
1931.29,15.00
1932.54,27.00
1933.79,34.00
1935.03,30.00
1936.28,43.00
1937.53,55.00
1938.77,34.00
1940.02,25.00
1941.26,23.00
1942.50,40.00
1943.75,48.00
1944.99,28.00
1946.22,7.00
1947.46,22.00
1948.70,61.00
1949.94,54.00
1951.17,11.00
1952.41,32.00
1953.64,39.00
1954.87,68.00
1956.10,42.00
1957.33,48.00
1958.56,33.00
1959.79,23.00
1961.02,21.00
1962.25,36.00
1963.47,51.00
1964.70,25.00
1965.92,70.00
1967.14,36.00
1968.36,40.00
1969.58,38.00
1970.80,27.00
1972.02,28.00
1973.24,42.00
1974.46,38.00
1975.67,60.00
1976.89,40.00
1978.10,70.00
1979.31,35.00
1980.52,13.00
1981.73,44.00
1982.94,36.00
1984.15,34.00
1985.36,27.00
1986.57,50.00
1987.77,46.00
1988.98,53.00
1990.18,25.00
1991.38,21.00
1992.58,10.00
1993.78,30.00
1994.98,38.00
1996.18,29.00
1997.38,24.00
1998.58,25.00
1999.77,11.00
2000.97,3.00
2002.16,9.00
