Integration Time,1000
Timestamp,2021-05-09 15_42_20.021000
Note,
Temperature,10.02
CCD C0,801.50982666
CCD C1,0.141540005803
CCD C2,-5.58820011065e-06
CCD C3,-8.47330028364e-09
CCD Offset,0
CCD Gain,NA
Laser Wavelength,785.0
Laser Enable,0
Laser Power,100
Laser Temperature,0.00
Pixel Count,1024

Wavenumber,Spectrum
262.40,15.00
264.60,7.00
266.80,0.00
269.01,14.00
271.21,19.00
273.40,30.00
275.60,40.00
277.80,48.00
280.00,65.00
282.19,87.00
284.38,105.00
286.58,133.00
288.77,160.00
290.96,208.00
293.15,265.00
295.34,356.00
297.53,439.00
299.72,579.00
301.90,725.00
304.09,940.00
306.27,1153.00
308.46,1398.00
310.64,1671.00
312.82,1927.00
315.00,2184.00
317.18,2494.00
319.36,2692.00
321.54,2865.00
323.72,3024.00
325.89,3061.00
328.07,3103.00
330.24,3175.00
332.42,3110.00
334.59,3112.00
336.76,3080.00
338.93,3059.00
341.10,2997.00
343.27,3004.00
345.43,2981.00
347.60,2949.00
349.77,2922.00
351.93,2899.00
354.09,2852.00
356.26,2863.00
358.42,2850.00
360.58,2884.00
362.74,2848.00
364.90,2815.00
367.06,2852.00
369.21,2830.00
371.37,2772.00
373.52,2797.00
375.68,2783.00
377.83,2781.00
379.98,2840.00
382.13,2812.00
384.28,2800.00
386.43,2806.00
388.58,2783.00
390.73,2789.00
392.87,2823.00
395.02,2751.00
397.16,2793.00
399.31,2835.00
401.45,2838.00
403.59,2899.00
405.73,2955.00
407.87,2976.00
410.01,3030.00
412.15,3042.00
414.28,3109.00
416.42,3177.00
418.55,3175.00
420.69,3161.00
422.82,3118.00
424.95,3097.00
427.08,3053.00
429.21,3012.00
431.34,3120.00
433.47,3139.00
435.60,3163.00
437.72,3217.00
439.85,3204.00
441.97,3143.00
444.10,3091.00
446.22,2905.00
448.34,2960.00
450.46,2840.00
452.58,2810.00
454.70,2783.00
456.81,2829.00
458.93,2763.00
461.05,2794.00
463.16,2718.00
465.27,2741.00
467.39,2703.00
469.50,2659.00
471.61,2678.00
473.72,2683.00
475.83,2669.00
477.93,2696.00
480.04,2700.00
482.15,2728.00
484.25,2750.00
486.35,2724.00
488.46,2742.00
490.56,2760.00
492.66,2703.00
494.76,2677.00
496.86,2679.00
498.96,2715.00
501.05,2751.00
503.15,2747.00
505.24,2758.00
507.34,2760.00
509.43,2748.00
511.52,2752.00
513.61,2768.00
515.70,2747.00
517.79,2715.00
519.88,2699.00
521.97,2688.00
524.06,2701.00
526.14,2675.00
528.23,2734.00
530.31,2722.00
532.39,2682.00
534.47,2682.00
536.55,2644.00
538.63,2622.00
540.71,2648.00
542.79,2600.00
544.87,2572.00
546.94,2549.00
549.02,2591.00
551.09,2540.00
553.16,2567.00
555.23,2551.00
557.30,2547.00
559.37,2564.00
561.44,2584.00
563.51,2551.00
565.58,2572.00
567.64,2602.00
569.71,2584.00
571.77,2584.00
573.84,2568.00
575.90,2541.00
577.96,2530.00
580.02,2543.00
582.08,2520.00
584.14,2514.00
586.19,2515.00
588.25,2515.00
590.30,2505.00
592.36,2473.00
594.41,2486.00
596.46,2452.00
598.51,2513.00
600.56,2561.00
602.61,2510.00
604.66,2511.00
606.71,2494.00
608.76,2543.00
610.80,2490.00
612.85,2510.00
614.89,2500.00
616.93,2528.00
618.97,2537.00
621.01,2543.00
623.05,2555.00
625.09,2555.00
627.13,2538.00
629.17,2500.00
631.20,2504.00
633.24,2498.00
635.27,2538.00
637.30,2536.00
639.33,2496.00
641.36,2518.00
643.39,2553.00
645.42,2494.00
647.45,2518.00
649.48,2452.00
651.50,2496.00
653.53,2485.00
655.55,2422.00
657.58,2414.00
659.60,2418.00
661.62,2438.00
663.64,2444.00
665.66,2462.00
667.68,2433.00
669.69,2437.00
671.71,2388.00
673.72,2414.00
675.74,2424.00
677.75,2391.00
679.76,2405.00
681.77,2411.00
683.78,2393.00
685.79,2429.00
687.80,2425.00
689.81,2451.00
691.81,2477.00
693.82,2471.00
695.82,2464.00
697.83,2464.00
699.83,2534.00
701.83,2482.00
703.83,2553.00
705.83,2576.00
707.83,2581.00
709.83,2629.00
711.82,2602.00
713.82,2650.00
715.81,2665.00
717.81,2694.00
719.80,2728.00
721.79,2697.00
723.78,2694.00
725.77,2732.00
727.76,2701.00
729.75,2724.00
731.73,2732.00
733.72,2684.00
735.70,2645.00
737.69,2591.00
739.67,2595.00
741.65,2623.00
743.63,2614.00
745.61,2671.00
747.59,2697.00
749.57,2787.00
751.55,2874.00
753.52,2922.00
755.50,2935.00
757.47,2947.00
759.44,2894.00
761.41,2865.00
763.39,2840.00
765.36,2789.00
767.32,2814.00
769.29,2759.00
771.26,2760.00
773.22,2700.00
775.19,2721.00
777.15,2671.00
779.12,2671.00
781.08,2680.00
783.04,2663.00
785.00,2712.00
786.96,2755.00
788.92,2807.00
790.87,2821.00
792.83,2885.00
794.79,2913.00
796.74,2956.00
798.69,2924.00
800.64,2918.00
802.60,2882.00
804.55,2802.00
806.50,2692.00
808.44,2676.00
810.39,2659.00
812.34,2631.00
814.28,2587.00
816.23,2576.00
818.17,2587.00
820.11,2604.00
822.05,2631.00
823.99,2595.00
825.93,2598.00
827.87,2620.00
829.81,2650.00
831.75,2589.00
833.68,2600.00
835.62,2604.00
837.55,2625.00
839.48,2580.00
841.41,2565.00
843.34,2578.00
845.27,2549.00
847.20,2585.00
849.13,2570.00
851.06,2495.00
852.98,2555.00
854.91,2577.00
856.83,2534.00
858.75,2528.00
860.67,2522.00
862.59,2492.00
864.51,2475.00
866.43,2447.00
868.35,2442.00
870.27,2519.00
872.18,2509.00
874.10,2494.00
876.01,2472.00
877.92,2509.00
879.84,2469.00
881.75,2497.00
883.66,2487.00
885.56,2484.00
887.47,2492.00
889.38,2480.00
891.28,2498.00
893.19,2530.00
895.09,2505.00
897.00,2482.00
898.90,2506.00
900.80,2520.00
902.70,2605.00
904.60,2614.00
906.50,2601.00
908.39,2624.00
910.29,2623.00
912.18,2718.00
914.08,2703.00
915.97,2698.00
917.86,2692.00
919.75,2604.00
921.64,2600.00
923.53,2595.00
925.42,2597.00
927.31,2608.00
929.19,2615.00
931.08,2599.00
932.96,2663.00
934.85,2714.00
936.73,2707.00
938.61,2756.00
940.49,2690.00
942.37,2705.00
944.25,2637.00
946.12,2610.00
948.00,2607.00
949.87,2581.00
951.75,2528.00
953.62,2577.00
955.49,2542.00
957.37,2551.00
959.24,2522.00
961.10,2558.00
962.97,2475.00
964.84,2561.00
966.71,2499.00
968.57,2504.00
970.44,2444.00
972.30,2492.00
974.16,2458.00
976.02,2501.00
977.88,2476.00
979.74,2477.00
981.60,2473.00
983.46,2496.00
985.31,2487.00
987.17,2473.00
989.02,2461.00
990.88,2492.00
992.73,2479.00
994.58,2490.00
996.43,2471.00
998.28,2504.00
1000.13,2557.00
1001.98,2541.00
1003.82,2574.00
1005.67,2585.00
1007.51,2551.00
1009.36,2525.00
1011.20,2572.00
1013.04,2547.00
1014.88,2585.00
1016.72,2545.00
1018.56,2536.00
1020.40,2482.00
1022.23,2458.00
1024.07,2461.00
1025.90,2445.00
1027.74,2488.00
1029.57,2486.00
1031.40,2412.00
1033.23,2430.00
1035.06,2412.00
1036.89,2380.00
1038.72,2422.00
1040.54,2391.00
1042.37,2309.00
1044.19,2323.00
1046.02,2344.00
1047.84,2328.00
1049.66,2313.00
1051.48,2335.00
1053.30,2292.00
1055.12,2276.00
1056.94,2323.00
1058.76,2324.00
1060.57,2309.00
1062.39,2324.00
1064.20,2296.00
1066.01,2321.00
1067.82,2304.00
1069.63,2331.00
1071.44,2315.00
1073.25,2321.00
1075.06,2319.00
1076.87,2302.00
1078.67,2302.00
1080.48,2325.00
1082.28,2302.00
1084.08,2253.00
1085.89,2281.00
1087.69,2342.00
1089.49,2296.00
1091.29,2345.00
1093.08,2340.00
1094.88,2302.00
1096.68,2328.00
1098.47,2319.00
1100.27,2302.00
1102.06,2313.00
1103.85,2336.00
1105.64,2313.00
1107.43,2249.00
1109.22,2310.00
1111.01,2351.00
1112.79,2349.00
1114.58,2363.00
1116.37,2362.00
1118.15,2372.00
1119.93,2391.00
1121.71,2334.00
1123.49,2409.00
1125.27,2372.00
1127.05,2345.00
1128.83,2337.00
1130.61,2325.00
1132.38,2372.00
1134.16,2360.00
1135.93,2361.00
1137.71,2395.00
1139.48,2332.00
1141.25,2351.00
1143.02,2313.00
1144.79,2327.00
1146.56,2347.00
1148.32,2397.00
1150.09,2363.00
1151.86,2369.00
1153.62,2406.00
1155.38,2437.00
1157.14,2511.00
1158.91,2584.00
1160.67,2675.00
1162.42,2740.00
1164.18,2896.00
1165.94,2953.00
1167.70,3008.00
1169.45,3015.00
1171.21,3007.00
1172.96,3002.00
1174.71,2905.00
1176.46,2840.00
1178.21,2692.00
1179.96,2690.00
1181.71,2616.00
1183.46,2572.00
1185.20,2504.00
1186.95,2475.00
1188.69,2429.00
1190.44,2410.00
1192.18,2376.00
1193.92,2319.00
1195.66,2327.00
1197.40,2289.00
1199.14,2294.00
1200.87,2271.00
1202.61,2284.00
1204.35,2334.00
1206.08,2336.00
1207.81,2353.00
1209.55,2466.00
1211.28,2528.00
1213.01,2602.00
1214.74,2618.00
1216.46,2634.00
1218.19,2629.00
1219.92,2546.00
1221.64,2475.00
1223.37,2410.00
1225.09,2363.00
1226.81,2325.00
1228.53,2334.00
1230.26,2313.00
1231.97,2312.00
1233.69,2286.00
1235.41,2259.00
1237.13,2266.00
1238.84,2268.00
1240.56,2268.00
1242.27,2193.00
1243.98,2256.00
1245.69,2236.00
1247.40,2192.00
1249.11,2269.00
1250.82,2250.00
1252.53,2253.00
1254.24,2254.00
1255.94,2212.00
1257.65,2253.00
1259.35,2258.00
1261.05,2264.00
1262.75,2228.00
1264.45,2229.00
1266.15,2250.00
1267.85,2232.00
1269.55,2167.00
1271.25,2220.00
1272.94,2193.00
1274.64,2269.00
1276.33,2262.00
1278.02,2209.00
1279.71,2262.00
1281.40,2277.00
1283.09,2336.00
1284.78,2347.00
1286.47,2389.00
1288.16,2363.00
1289.84,2465.00
1291.53,2496.00
1293.21,2536.00
1294.89,2538.00
1296.57,2540.00
1298.25,2469.00
1299.93,2473.00
1301.61,2493.00
1303.29,2374.00
1304.97,2336.00
1306.64,2321.00
1308.32,2270.00
1309.99,2197.00
1311.66,2194.00
1313.33,2197.00
1315.01,2168.00
1316.67,2184.00
1318.34,2121.00
1320.01,2172.00
1321.68,2129.00
1323.34,2136.00
1325.01,2136.00
1326.67,2203.00
1328.33,2189.00
1330.00,2228.00
1331.66,2241.00
1333.32,2282.00
1334.98,2325.00
1336.63,2313.00
1338.29,2334.00
1339.95,2312.00
1341.60,2307.00
1343.25,2357.00
1344.91,2342.00
1346.56,2336.00
1348.21,2385.00
1349.86,2416.00
1351.51,2507.00
1353.16,2558.00
1354.80,2671.00
1356.45,2736.00
1358.09,2777.00
1359.74,2962.00
1361.38,3050.00
1363.02,3124.00
1364.66,3177.00
1366.30,3213.00
1367.94,3116.00
1369.58,3165.00
1371.22,3062.00
1372.85,3004.00
1374.49,2949.00
1376.12,3000.00
1377.75,2926.00
1379.38,2932.00
1381.02,2844.00
1382.65,2829.00
1384.27,2875.00
1385.90,2809.00
1387.53,2768.00
1389.15,2794.00
1390.78,2759.00
1392.40,2699.00
1394.03,2627.00
1395.65,2496.00
1397.27,2412.00
1398.89,2336.00
1400.51,2275.00
1402.13,2224.00
1403.74,2197.00
1405.36,2199.00
1406.97,2180.00
1408.59,2193.00
1410.20,2159.00
1411.81,2156.00
1413.42,2192.00
1415.03,2174.00
1416.64,2184.00
1418.25,2211.00
1419.86,2173.00
1421.46,2211.00
1423.07,2262.00
1424.67,2255.00
1426.28,2289.00
1427.88,2340.00
1429.48,2319.00
1431.08,2378.00
1432.68,2370.00
1434.28,2423.00
1435.87,2427.00
1437.47,2433.00
1439.06,2442.00
1440.66,2423.00
1442.25,2380.00
1443.84,2413.00
1445.43,2397.00
1447.02,2378.00
1448.61,2369.00
1450.20,2361.00
1451.79,2295.00
1453.37,2267.00
1454.96,2279.00
1456.54,2207.00
1458.13,2235.00
1459.71,2209.00
1461.29,2155.00
1462.87,2167.00
1464.45,2159.00
1466.03,2105.00
1467.60,2155.00
1469.18,2115.00
1470.76,2100.00
1472.33,2064.00
1473.90,2038.00
1475.48,2070.00
1477.05,2018.00
1478.62,2028.00
1480.19,1984.00
1481.75,1998.00
1483.32,1980.00
1484.89,2041.00
1486.45,2000.00
1488.02,2001.00
1489.58,1997.00
1491.14,1960.00
1492.70,1960.00
1494.26,1944.00
1495.82,1872.00
1497.38,1898.00
1498.94,1883.00
1500.50,1902.00
1502.05,1849.00
1503.61,1802.00
1505.16,1822.00
1506.71,1800.00
1508.26,1828.00
1509.81,1805.00
1511.36,1829.00
1512.91,1803.00
1514.46,1833.00
1516.00,1847.00
1517.55,1836.00
1519.09,1832.00
1520.64,1847.00
1522.18,1870.00
1523.72,1847.00
1525.26,1889.00
1526.80,1898.00
1528.34,1923.00
1529.88,1953.00
1531.41,1984.00
1532.95,1976.00
1534.48,1992.00
1536.02,2050.00
1537.55,2005.00
1539.08,1960.00
1540.61,1969.00
1542.14,1986.00
1543.67,1971.00
1545.19,2011.00
1546.72,1973.00
1548.25,1949.00
1549.77,1908.00
1551.29,1935.00
1552.82,1918.00
1554.34,1905.00
1555.86,1904.00
1557.38,1929.00
1558.90,1868.00
1560.41,1889.00
1561.93,1895.00
1563.45,1904.00
1564.96,1855.00
1566.47,1834.00
1567.99,1898.00
1569.50,1914.00
1571.01,1891.00
1572.52,1943.00
1574.03,1938.00
1575.53,1981.00
1577.04,2053.00
1578.55,2126.00
1580.05,2165.00
1581.55,2186.00
1583.06,2245.00
1584.56,2203.00
1586.06,2142.00
1587.56,2125.00
1589.06,2117.00
1590.56,2014.00
1592.05,1959.00
1593.55,1978.00
1595.04,1897.00
1596.54,1933.00
1598.03,1922.00
1599.52,1925.00
1601.01,1927.00
1602.50,1973.00
1603.99,1982.00
1605.48,2014.00
1606.96,2095.00
1608.45,2190.00
1609.93,2258.00
1611.42,2384.00
1612.90,2346.00
1614.38,2398.00
1615.86,2364.00
1617.34,2277.00
1618.82,2184.00
1620.30,2085.00
1621.78,2015.00
1623.25,1950.00
1624.73,1916.00
1626.20,1906.00
1627.67,1904.00
1629.14,1904.00
1630.62,1885.00
1632.08,1858.00
1633.55,1849.00
1635.02,1887.00
1636.49,1869.00
1637.95,1844.00
1639.42,1815.00
1640.88,1819.00
1642.35,1817.00
1643.81,1771.00
1645.27,1777.00
1646.73,1803.00
1648.19,1769.00
1649.64,1745.00
1651.10,1738.00
1652.56,1730.00
1654.01,1725.00
1655.47,1707.00
1656.92,1690.00
1658.37,1659.00
1659.82,1664.00
1661.27,1695.00
1662.72,1644.00
1664.17,1590.00
1665.62,1611.00
1667.06,1595.00
1668.51,1598.00
1669.95,1558.00
1671.39,1564.00
1672.84,1564.00
1674.28,1566.00
1675.72,1531.00
1677.16,1511.00
1678.59,1501.00
1680.03,1478.00
1681.47,1482.00
1682.90,1489.00
1684.34,1453.00
1685.77,1446.00
1687.20,1423.00
1688.63,1439.00
1690.06,1423.00
1691.49,1386.00
1692.92,1367.00
1694.35,1396.00
1695.77,1379.00
1697.20,1343.00
1698.62,1404.00
1700.04,1324.00
1701.47,1339.00
1702.89,1347.00
1704.31,1341.00
1705.73,1267.00
1707.14,1290.00
1708.56,1281.00
1709.98,1274.00
1711.39,1274.00
1712.81,1286.00
1714.22,1229.00
1715.63,1284.00
1717.04,1254.00
1718.45,1218.00
1719.86,1257.00
1721.27,1226.00
1722.68,1208.00
1724.08,1254.00
1725.49,1208.00
1726.89,1206.00
1728.30,1221.00
1729.70,1189.00
1731.10,1179.00
1732.50,1177.00
1733.90,1180.00
1735.30,1174.00
1736.69,1153.00
1738.09,1136.00
1739.49,1141.00
1740.88,1153.00
1742.27,1136.00
1743.67,1151.00
1745.06,1132.00
1746.45,1124.00
1747.84,1096.00
1749.23,1101.00
1750.61,1096.00
1752.00,1112.00
1753.38,1116.00
1754.77,1134.00
1756.15,1086.00
1757.53,1092.00
1758.92,1052.00
1760.30,1075.00
1761.68,1066.00
1763.05,1056.00
1764.43,1060.00
1765.81,1085.00
1767.18,1092.00
1768.56,1083.00
1769.93,1052.00
1771.30,1054.00
1772.67,1035.00
1774.05,1048.00
1775.41,1035.00
1776.78,1031.00
1778.15,1022.00
1779.52,1025.00
1780.88,1048.00
1782.25,1033.00
1783.61,1012.00
1784.97,997.00
1786.33,1029.00
1787.69,1003.00
1789.05,1028.00
1790.41,1022.00
1791.77,1004.00
1793.13,1008.00
1794.48,995.00
1795.84,997.00
1797.19,1006.00
1798.54,1012.00
1799.89,968.00
1801.25,953.00
1802.59,976.00
1803.94,985.00
1805.29,993.00
1806.64,957.00
1807.98,967.00
1809.33,972.00
1810.67,1001.00
1812.01,964.00
1813.36,940.00
1814.70,974.00
1816.04,946.00
1817.37,927.00
1818.71,940.00
1820.05,953.00
1821.38,953.00
1822.72,948.00
1824.05,965.00
1825.39,953.00
1826.72,925.00
1828.05,936.00
1829.38,908.00
1830.71,945.00
1832.03,913.00
1833.36,900.00
1834.69,945.00
1836.01,900.00
1837.34,923.00
1838.66,921.00
1839.98,896.00
1841.30,888.00
1842.62,919.00
1843.94,896.00
1845.26,900.00
1846.57,909.00
1847.89,909.00
1849.20,912.00
1850.52,915.00
1851.83,902.00
1853.14,903.00
1854.45,885.00
1855.76,900.00
1857.07,852.00
1858.38,851.00
1859.69,917.00
1860.99,871.00
1862.30,880.00
1863.60,892.00
1864.90,892.00
1866.21,879.00
1867.51,892.00
1868.81,860.00
1870.11,866.00
1871.40,887.00
1872.70,873.00
1874.00,871.00
1875.29,848.00
1876.59,894.00
1877.88,869.00
1879.17,860.00
1880.46,904.00
1881.75,841.00
1883.04,841.00
1884.33,860.00
1885.62,870.00
1886.90,868.00
1888.19,829.00
1889.47,834.00
1890.75,856.00
1892.04,824.00
1893.32,830.00
1894.60,818.00
1895.88,833.00
1897.15,827.00
1898.43,830.00
1899.71,833.00
1900.98,843.00
1902.26,843.00
1903.53,835.00
1904.80,871.00
1906.07,827.00
1907.34,839.00
1908.61,831.00
1909.88,819.00
1911.15,814.00
1912.41,803.00
1913.68,809.00
1914.94,824.00
1916.21,825.00
1917.47,813.00
1918.73,799.00
1919.99,816.00
1921.25,797.00
1922.51,795.00
1923.76,816.00
1925.02,788.00
1926.28,810.00
1927.53,766.00
1928.78,816.00
1930.04,780.00
1931.29,783.00
1932.54,767.00
1933.79,780.00
1935.03,778.00
1936.28,790.00
1937.53,785.00
1938.77,754.00
1940.02,769.00
1941.26,778.00
1942.50,803.00
1943.75,776.00
1944.99,776.00
1946.22,780.00
1947.46,767.00
1948.70,774.00
1949.94,757.00
1951.17,753.00
1952.41,752.00
1953.64,755.00
1954.87,761.00
1956.10,765.00
1957.33,717.00
1958.56,772.00
1959.79,728.00
1961.02,719.00
1962.25,748.00
1963.47,713.00
1964.70,729.00
1965.92,736.00
1967.14,746.00
1968.36,708.00
1969.58,715.00
1970.80,745.00
1972.02,733.00
1973.24,737.00
1974.46,721.00
1975.67,745.00
1976.89,744.00
1978.10,726.00
1979.31,715.00
1980.52,721.00
1981.73,719.00
1982.94,734.00
1984.15,725.00
1985.36,711.00
1986.57,740.00
1987.77,721.00
1988.98,707.00
1990.18,675.00
1991.38,723.00
1992.58,696.00
1993.78,681.00
1994.98,698.00
1996.18,704.00
1997.38,695.00
1998.58,708.00
1999.77,738.00
2000.97,696.00
2002.16,748.00
