Integration Time,1000
Timestamp,2021-05-09 15_42_44.485000
Note,
Temperature,10.00
CCD C0,801.50982666
CCD C1,0.141540005803
CCD C2,-5.58820011065e-06
CCD C3,-8.47330028364e-09
CCD Offset,0
CCD Gain,NA
Laser Wavelength,785.0
Laser Enable,0
Laser Power,100
Laser Temperature,0.00
Pixel Count,1024

Wavenumber,Spectrum
262.40,21.00
264.60,36.00
266.80,6.00
269.01,27.00
271.21,33.00
273.40,47.00
275.60,50.00
277.80,63.00
280.00,71.00
282.19,99.00
284.38,112.00
286.58,150.00
288.77,170.00
290.96,234.00
293.15,288.00
295.34,381.00
297.53,475.00
299.72,623.00
301.90,782.00
304.09,1003.00
306.27,1243.00
308.46,1529.00
310.64,1789.00
312.82,2091.00
315.00,2396.00
317.18,2705.00
319.36,2880.00
321.54,3091.00
323.72,3165.00
325.89,3264.00
328.07,3280.00
330.24,3359.00
332.42,3324.00
334.59,3346.00
336.76,3260.00
338.93,3286.00
341.10,3282.00
343.27,3209.00
345.43,3154.00
347.60,3196.00
349.77,3108.00
351.93,3060.00
354.09,3059.00
356.26,3087.00
358.42,3084.00
360.58,3019.00
362.74,3046.00
364.90,3057.00
367.06,3016.00
369.21,3034.00
371.37,2985.00
373.52,3004.00
375.68,3019.00
377.83,2990.00
379.98,3027.00
382.13,2998.00
384.28,2981.00
386.43,3038.00
388.58,3032.00
390.73,2968.00
392.87,3015.00
395.02,3015.00
397.16,3021.00
399.31,3010.00
401.45,3082.00
403.59,3130.00
405.73,3141.00
407.87,3202.00
410.01,3228.00
412.15,3288.00
414.28,3392.00
416.42,3432.00
418.55,3394.00
420.69,3433.00
422.82,3352.00
424.95,3299.00
427.08,3346.00
429.21,3270.00
431.34,3321.00
433.47,3413.00
435.60,3375.00
437.72,3482.00
439.85,3483.00
441.97,3430.00
444.10,3321.00
446.22,3219.00
448.34,3116.00
450.46,3097.00
452.58,3023.00
454.70,2996.00
456.81,2998.00
458.93,2966.00
461.05,2969.00
463.16,2956.00
465.27,2964.00
467.39,2930.00
469.50,2935.00
471.61,2922.00
473.72,2892.00
475.83,2909.00
477.93,2900.00
480.04,2888.00
482.15,2882.00
484.25,2958.00
486.35,2970.00
488.46,3031.00
490.56,2922.00
492.66,2955.00
494.76,2934.00
496.86,2901.00
498.96,2913.00
501.05,2989.00
503.15,2991.00
505.24,3013.00
507.34,3036.00
509.43,3047.00
511.52,2969.00
513.61,2952.00
515.70,2994.00
517.79,2960.00
519.88,2962.00
521.97,2964.00
524.06,2958.00
526.14,2934.00
528.23,3006.00
530.31,3004.00
532.39,2946.00
534.47,2899.00
536.55,2873.00
538.63,2848.00
540.71,2836.00
542.79,2828.00
544.87,2791.00
546.94,2830.00
549.02,2784.00
551.09,2772.00
553.16,2799.00
555.23,2795.00
557.30,2787.00
559.37,2811.00
561.44,2854.00
563.51,2844.00
565.58,2802.00
567.64,2834.00
569.71,2837.00
571.77,2782.00
573.84,2821.00
575.90,2745.00
577.96,2789.00
580.02,2768.00
582.08,2752.00
584.14,2731.00
586.19,2711.00
588.25,2673.00
590.30,2712.00
592.36,2722.00
594.41,2705.00
596.46,2717.00
598.51,2701.00
600.56,2717.00
602.61,2713.00
604.66,2745.00
606.71,2694.00
608.76,2738.00
610.80,2720.00
612.85,2751.00
614.89,2763.00
616.93,2756.00
618.97,2813.00
621.01,2808.00
623.05,2818.00
625.09,2762.00
627.13,2759.00
629.17,2762.00
631.20,2743.00
633.24,2766.00
635.27,2726.00
637.30,2793.00
639.33,2707.00
641.36,2722.00
643.39,2766.00
645.42,2771.00
647.45,2724.00
649.48,2688.00
651.50,2734.00
653.53,2682.00
655.55,2662.00
657.58,2669.00
659.60,2679.00
661.62,2655.00
663.64,2718.00
665.66,2633.00
667.68,2643.00
669.69,2585.00
671.71,2641.00
673.72,2625.00
675.74,2627.00
677.75,2644.00
679.76,2667.00
681.77,2622.00
683.78,2639.00
685.79,2627.00
687.80,2665.00
689.81,2686.00
691.81,2707.00
693.82,2713.00
695.82,2687.00
697.83,2728.00
699.83,2762.00
701.83,2753.00
703.83,2774.00
705.83,2829.00
707.83,2834.00
709.83,2880.00
711.82,2872.00
713.82,2903.00
715.81,2920.00
717.81,2987.00
719.80,2927.00
721.79,2952.00
723.78,2964.00
725.77,2975.00
727.76,2956.00
729.75,3053.00
731.73,2992.00
733.72,2960.00
735.70,2922.00
737.69,2846.00
739.67,2852.00
741.65,2895.00
743.63,2888.00
745.61,2926.00
747.59,2933.00
749.57,3064.00
751.55,3116.00
753.52,3186.00
755.50,3196.00
757.47,3221.00
759.44,3251.00
761.41,3183.00
763.39,3163.00
765.36,3065.00
767.32,3097.00
769.29,3078.00
771.26,3038.00
773.22,2976.00
775.19,2943.00
777.15,2905.00
779.12,2920.00
781.08,2918.00
783.04,2948.00
785.00,2984.00
786.96,3017.00
788.92,3032.00
790.87,3105.00
792.83,3201.00
794.79,3225.00
796.74,3234.00
798.69,3213.00
800.64,3218.00
802.60,3167.00
804.55,3102.00
806.50,3013.00
808.44,2981.00
810.39,2948.00
812.34,2909.00
814.28,2901.00
816.23,2834.00
818.17,2865.00
820.11,2830.00
822.05,2868.00
823.99,2860.00
825.93,2943.00
827.87,2844.00
829.81,2936.00
831.75,2901.00
833.68,2872.00
835.62,2886.00
837.55,2909.00
839.48,2850.00
841.41,2820.00
843.34,2840.00
845.27,2850.00
847.20,2813.00
849.13,2812.00
851.06,2817.00
852.98,2800.00
854.91,2791.00
856.83,2791.00
858.75,2793.00
860.67,2796.00
862.59,2754.00
864.51,2732.00
866.43,2755.00
868.35,2750.00
870.27,2749.00
872.18,2726.00
874.10,2753.00
876.01,2746.00
877.92,2735.00
879.84,2726.00
881.75,2766.00
883.66,2738.00
885.56,2750.00
887.47,2776.00
889.38,2724.00
891.28,2728.00
893.19,2726.00
895.09,2749.00
897.00,2764.00
898.90,2816.00
900.80,2815.00
902.70,2780.00
904.60,2848.00
906.50,2876.00
908.39,2856.00
910.29,2878.00
912.18,2931.00
914.08,2983.00
915.97,2996.00
917.86,2975.00
919.75,2971.00
921.64,2917.00
923.53,2861.00
925.42,2825.00
927.31,2827.00
929.19,2846.00
931.08,2848.00
932.96,2897.00
934.85,2979.00
936.73,2967.00
938.61,3011.00
940.49,3010.00
942.37,2953.00
944.25,2930.00
946.12,2878.00
948.00,2843.00
949.87,2870.00
951.75,2808.00
953.62,2838.00
955.49,2844.00
957.37,2789.00
959.24,2811.00
961.10,2804.00
962.97,2780.00
964.84,2770.00
966.71,2773.00
968.57,2753.00
970.44,2711.00
972.30,2748.00
974.16,2745.00
976.02,2688.00
977.88,2697.00
979.74,2699.00
981.60,2700.00
983.46,2768.00
985.31,2709.00
987.17,2728.00
989.02,2718.00
990.88,2707.00
992.73,2742.00
994.58,2707.00
996.43,2747.00
998.28,2727.00
1000.13,2777.00
1001.98,2741.00
1003.82,2796.00
1005.67,2838.00
1007.51,2783.00
1009.36,2810.00
1011.20,2831.00
1013.04,2793.00
1014.88,2819.00
1016.72,2795.00
1018.56,2760.00
1020.40,2754.00
1022.23,2713.00
1024.07,2710.00
1025.90,2692.00
1027.74,2711.00
1029.57,2688.00
1031.40,2642.00
1033.23,2667.00
1035.06,2655.00
1036.89,2648.00
1038.72,2658.00
1040.54,2665.00
1042.37,2591.00
1044.19,2577.00
1046.02,2584.00
1047.84,2513.00
1049.66,2561.00
1051.48,2588.00
1053.30,2535.00
1055.12,2571.00
1056.94,2587.00
1058.76,2589.00
1060.57,2539.00
1062.39,2547.00
1064.20,2566.00
1066.01,2589.00
1067.82,2624.00
1069.63,2576.00
1071.44,2546.00
1073.25,2555.00
1075.06,2559.00
1076.87,2523.00
1078.67,2582.00
1080.48,2507.00
1082.28,2553.00
1084.08,2548.00
1085.89,2538.00
1087.69,2498.00
1089.49,2555.00
1091.29,2574.00
1093.08,2576.00
1094.88,2521.00
1096.68,2543.00
1098.47,2545.00
1100.27,2565.00
1102.06,2551.00
1103.85,2572.00
1105.64,2543.00
1107.43,2511.00
1109.22,2572.00
1111.01,2594.00
1112.79,2589.00
1114.58,2588.00
1116.37,2572.00
1118.15,2608.00
1119.93,2572.00
1121.71,2598.00
1123.49,2595.00
1125.27,2574.00
1127.05,2619.00
1128.83,2631.00
1130.61,2682.00
1132.38,2621.00
1134.16,2636.00
1135.93,2568.00
1137.71,2629.00
1139.48,2597.00
1141.25,2646.00
1143.02,2591.00
1144.79,2576.00
1146.56,2612.00
1148.32,2620.00
1150.09,2593.00
1151.86,2625.00
1153.62,2684.00
1155.38,2717.00
1157.14,2757.00
1158.91,2818.00
1160.67,2973.00
1162.42,3063.00
1164.18,3217.00
1165.94,3285.00
1167.70,3382.00
1169.45,3424.00
1171.21,3378.00
1172.96,3298.00
1174.71,3187.00
1176.46,3133.00
1178.21,3025.00
1179.96,2970.00
1181.71,2831.00
1183.46,2825.00
1185.20,2798.00
1186.95,2724.00
1188.69,2669.00
1190.44,2686.00
1192.18,2587.00
1193.92,2579.00
1195.66,2574.00
1197.40,2553.00
1199.14,2528.00
1200.87,2553.00
1202.61,2530.00
1204.35,2582.00
1206.08,2596.00
1207.81,2659.00
1209.55,2720.00
1211.28,2814.00
1213.01,2831.00
1214.74,2901.00
1216.46,2960.00
1218.19,2903.00
1219.92,2799.00
1221.64,2750.00
1223.37,2670.00
1225.09,2644.00
1226.81,2587.00
1228.53,2599.00
1230.26,2538.00
1231.97,2525.00
1233.69,2513.00
1235.41,2500.00
1237.13,2502.00
1238.84,2492.00
1240.56,2494.00
1242.27,2505.00
1243.98,2509.00
1245.69,2489.00
1247.40,2466.00
1249.11,2488.00
1250.82,2477.00
1252.53,2471.00
1254.24,2513.00
1255.94,2456.00
1257.65,2466.00
1259.35,2428.00
1261.05,2465.00
1262.75,2403.00
1264.45,2471.00
1266.15,2454.00
1267.85,2435.00
1269.55,2408.00
1271.25,2414.00
1272.94,2431.00
1274.64,2457.00
1276.33,2490.00
1278.02,2519.00
1279.71,2505.00
1281.40,2515.00
1283.09,2562.00
1284.78,2602.00
1286.47,2633.00
1288.16,2618.00
1289.84,2741.00
1291.53,2783.00
1293.21,2776.00
1294.89,2844.00
1296.57,2876.00
1298.25,2806.00
1299.93,2749.00
1301.61,2761.00
1303.29,2648.00
1304.97,2580.00
1306.64,2547.00
1308.32,2483.00
1309.99,2445.00
1311.66,2479.00
1313.33,2424.00
1315.01,2393.00
1316.67,2409.00
1318.34,2357.00
1320.01,2347.00
1321.68,2393.00
1323.34,2385.00
1325.01,2378.00
1326.67,2389.00
1328.33,2383.00
1330.00,2389.00
1331.66,2475.00
1333.32,2528.00
1334.98,2542.00
1336.63,2537.00
1338.29,2596.00
1339.95,2610.00
1341.60,2537.00
1343.25,2591.00
1344.91,2633.00
1346.56,2616.00
1348.21,2659.00
1349.86,2686.00
1351.51,2777.00
1353.16,2817.00
1354.80,2884.00
1356.45,2996.00
1358.09,3108.00
1359.74,3236.00
1361.38,3356.00
1363.02,3432.00
1364.66,3540.00
1366.30,3510.00
1367.94,3542.00
1369.58,3413.00
1371.22,3395.00
1372.85,3346.00
1374.49,3329.00
1376.12,3318.00
1377.75,3232.00
1379.38,3198.00
1381.02,3129.00
1382.65,3136.00
1384.27,3195.00
1385.90,3091.00
1387.53,3113.00
1389.15,3100.00
1390.78,3084.00
1392.40,2989.00
1394.03,2873.00
1395.65,2791.00
1397.27,2708.00
1398.89,2612.00
1400.51,2548.00
1402.13,2462.00
1403.74,2458.00
1405.36,2407.00
1406.97,2423.00
1408.59,2418.00
1410.20,2421.00
1411.81,2367.00
1413.42,2397.00
1415.03,2439.00
1416.64,2456.00
1418.25,2494.00
1419.86,2435.00
1421.46,2473.00
1423.07,2475.00
1424.67,2542.00
1426.28,2574.00
1427.88,2538.00
1429.48,2634.00
1431.08,2638.00
1432.68,2686.00
1434.28,2713.00
1435.87,2703.00
1437.47,2718.00
1439.06,2751.00
1440.66,2724.00
1442.25,2735.00
1443.84,2677.00
1445.43,2673.00
1447.02,2645.00
1448.61,2625.00
1450.20,2606.00
1451.79,2568.00
1453.37,2551.00
1454.96,2513.00
1456.54,2545.00
1458.13,2442.00
1459.71,2431.00
1461.29,2456.00
1462.87,2426.00
1464.45,2393.00
1466.03,2374.00
1467.60,2366.00
1469.18,2344.00
1470.76,2334.00
1472.33,2311.00
1473.90,2308.00
1475.48,2304.00
1477.05,2235.00
1478.62,2222.00
1480.19,2203.00
1481.75,2243.00
1483.32,2180.00
1484.89,2222.00
1486.45,2205.00
1488.02,2218.00
1489.58,2211.00
1491.14,2220.00
1492.70,2197.00
1494.26,2164.00
1495.82,2157.00
1497.38,2107.00
1498.94,2081.00
1500.50,2037.00
1502.05,2041.00
1503.61,1977.00
1505.16,2030.00
1506.71,2019.00
1508.26,1973.00
1509.81,1991.00
1511.36,2021.00
1512.91,2029.00
1514.46,2058.00
1516.00,2037.00
1517.55,2059.00
1519.09,2064.00
1520.64,2033.00
1522.18,2077.00
1523.72,2053.00
1525.26,2085.00
1526.80,2113.00
1528.34,2178.00
1529.88,2203.00
1531.41,2228.00
1532.95,2202.00
1534.48,2232.00
1536.02,2248.00
1537.55,2268.00
1539.08,2190.00
1540.61,2233.00
1542.14,2212.00
1543.67,2190.00
1545.19,2136.00
1546.72,2173.00
1548.25,2153.00
1549.77,2142.00
1551.29,2148.00
1552.82,2144.00
1554.34,2103.00
1555.86,2171.00
1557.38,2152.00
1558.90,2129.00
1560.41,2117.00
1561.93,2113.00
1563.45,2077.00
1564.96,2102.00
1566.47,2117.00
1567.99,2102.00
1569.50,2034.00
1571.01,2127.00
1572.52,2167.00
1574.03,2153.00
1575.53,2236.00
1577.04,2306.00
1578.55,2336.00
1580.05,2382.00
1581.55,2462.00
1583.06,2473.00
1584.56,2475.00
1586.06,2418.00
1587.56,2344.00
1589.06,2319.00
1590.56,2239.00
1592.05,2178.00
1593.55,2123.00
1595.04,2148.00
1596.54,2123.00
1598.03,2080.00
1599.52,2148.00
1601.01,2111.00
1602.50,2144.00
1603.99,2203.00
1605.48,2222.00
1606.96,2349.00
1608.45,2485.00
1609.93,2538.00
1611.42,2633.00
1612.90,2683.00
1614.38,2731.00
1615.86,2629.00
1617.34,2580.00
1618.82,2443.00
1620.30,2354.00
1621.78,2264.00
1623.25,2184.00
1624.73,2151.00
1626.20,2134.00
1627.67,2159.00
1629.14,2108.00
1630.62,2094.00
1632.08,2069.00
1633.55,2081.00
1635.02,2067.00
1636.49,2068.00
1637.95,2098.00
1639.42,2079.00
1640.88,2025.00
1642.35,2011.00
1643.81,2013.00
1645.27,1977.00
1646.73,2010.00
1648.19,1961.00
1649.64,1925.00
1651.10,1936.00
1652.56,1967.00
1654.01,1906.00
1655.47,1880.00
1656.92,1895.00
1658.37,1845.00
1659.82,1875.00
1661.27,1842.00
1662.72,1819.00
1664.17,1830.00
1665.62,1817.00
1667.06,1817.00
1668.51,1794.00
1669.95,1777.00
1671.39,1725.00
1672.84,1733.00
1674.28,1710.00
1675.72,1685.00
1677.16,1713.00
1678.59,1682.00
1680.03,1672.00
1681.47,1659.00
1682.90,1679.00
1684.34,1653.00
1685.77,1615.00
1687.20,1589.00
1688.63,1612.00
1690.06,1554.00
1691.49,1561.00
1692.92,1573.00
1694.35,1560.00
1695.77,1596.00
1697.20,1528.00
1698.62,1531.00
1700.04,1516.00
1701.47,1499.00
1702.89,1463.00
1704.31,1480.00
1705.73,1474.00
1707.14,1449.00
1708.56,1429.00
1709.98,1411.00
1711.39,1394.00
1712.81,1436.00
1714.22,1406.00
1715.63,1421.00
1717.04,1396.00
1718.45,1366.00
1719.86,1400.00
1721.27,1380.00
1722.68,1370.00
1724.08,1345.00
1725.49,1366.00
1726.89,1341.00
1728.30,1326.00
1729.70,1305.00
1731.10,1306.00
1732.50,1309.00
1733.90,1305.00
1735.30,1303.00
1736.69,1292.00
1738.09,1285.00
1739.49,1278.00
1740.88,1246.00
1742.27,1286.00
1743.67,1240.00
1745.06,1246.00
1746.45,1276.00
1747.84,1269.00
1749.23,1211.00
1750.61,1229.00
1752.00,1221.00
1753.38,1248.00
1754.77,1227.00
1756.15,1237.00
1757.53,1214.00
1758.92,1233.00
1760.30,1191.00
1761.68,1174.00
1763.05,1189.00
1764.43,1212.00
1765.81,1182.00
1767.18,1191.00
1768.56,1204.00
1769.93,1135.00
1771.30,1170.00
1772.67,1179.00
1774.05,1149.00
1775.41,1147.00
1776.78,1175.00
1778.15,1155.00
1779.52,1151.00
1780.88,1145.00
1782.25,1145.00
1783.61,1113.00
1784.97,1130.00
1786.33,1118.00
1787.69,1141.00
1789.05,1117.00
1790.41,1111.00
1791.77,1117.00
1793.13,1126.00
1794.48,1118.00
1795.84,1142.00
1797.19,1116.00
1798.54,1105.00
1799.89,1065.00
1801.25,1098.00
1802.59,1081.00
1803.94,1094.00
1805.29,1066.00
1806.64,1065.00
1807.98,1064.00
1809.33,1064.00
1810.67,1079.00
1812.01,1069.00
1813.36,1086.00
1814.70,1058.00
1816.04,1079.00
1817.37,1060.00
1818.71,1054.00
1820.05,1088.00
1821.38,1065.00
1822.72,1041.00
1824.05,1056.00
1825.39,1062.00
1826.72,1054.00
1828.05,1018.00
1829.38,1052.00
1830.71,1058.00
1832.03,997.00
1833.36,1043.00
1834.69,1022.00
1836.01,1018.00
1837.34,1043.00
1838.66,1048.00
1839.98,1014.00
1841.30,1010.00
1842.62,1026.00
1843.94,1011.00
1845.26,1027.00
1846.57,1014.00
1847.89,982.00
1849.20,1009.00
1850.52,1024.00
1851.83,991.00
1853.14,993.00
1854.45,976.00
1855.76,991.00
1857.07,979.00
1858.38,1014.00
1859.69,972.00
1860.99,987.00
1862.30,989.00
1863.60,1018.00
1864.90,978.00
1866.21,987.00
1867.51,980.00
1868.81,961.00
1870.11,953.00
1871.40,974.00
1872.70,960.00
1874.00,1006.00
1875.29,962.00
1876.59,974.00
1877.88,985.00
1879.17,930.00
1880.46,942.00
1881.75,934.00
1883.04,963.00
1884.33,968.00
1885.62,940.00
1886.90,944.00
1888.19,940.00
1889.47,999.00
1890.75,945.00
1892.04,930.00
1893.32,917.00
1894.60,953.00
1895.88,926.00
1897.15,926.00
1898.43,932.00
1899.71,953.00
1900.98,911.00
1902.26,924.00
1903.53,934.00
1904.80,907.00
1906.07,901.00
1907.34,921.00
1908.61,909.00
1909.88,892.00
1911.15,894.00
1912.41,902.00
1913.68,902.00
1914.94,889.00
1916.21,890.00
1917.47,887.00
1918.73,894.00
1919.99,913.00
1921.25,943.00
1922.51,913.00
1923.76,903.00
1925.02,887.00
1926.28,873.00
1927.53,873.00
1928.78,871.00
1930.04,875.00
1931.29,875.00
1932.54,853.00
1933.79,876.00
1935.03,852.00
1936.28,871.00
1937.53,861.00
1938.77,860.00
1940.02,841.00
1941.26,846.00
1942.50,889.00
1943.75,842.00
1944.99,867.00
1946.22,831.00
1947.46,849.00
1948.70,848.00
1949.94,833.00
1951.17,837.00
1952.41,843.00
1953.64,833.00
1954.87,803.00
1956.10,843.00
1957.33,799.00
1958.56,825.00
1959.79,835.00
1961.02,831.00
1962.25,824.00
1963.47,816.00
1964.70,831.00
1965.92,824.00
1967.14,791.00
1968.36,816.00
1969.58,814.00
1970.80,854.00
1972.02,811.00
1973.24,809.00
1974.46,808.00
1975.67,795.00
1976.89,811.00
1978.10,822.00
1979.31,831.00
1980.52,822.00
1981.73,833.00
1982.94,829.00
1984.15,810.00
1985.36,801.00
1986.57,797.00
1987.77,792.00
1988.98,808.00
1990.18,795.00
1991.38,810.00
1992.58,765.00
1993.78,810.00
1994.98,781.00
1996.18,797.00
1997.38,774.00
1998.58,776.00
1999.77,806.00
2000.97,776.00
2002.16,822.00
