Integration Time,1000
Timestamp,2021-05-09 15_43_03.578000
Note,
Temperature,9.99
CCD C0,801.50982666
CCD C1,0.141540005803
CCD C2,-5.58820011065e-06
CCD C3,-8.47330028364e-09
CCD Offset,0
CCD Gain,NA
Laser Wavelength,785.0
Laser Enable,0
Laser Power,100
Laser Temperature,0.00
Pixel Count,1024

Wavenumber,Spectrum
262.40,7.00
264.60,13.00
266.80,11.00
269.01,10.00
271.21,21.00
273.40,32.00
275.60,48.00
277.80,55.00
280.00,63.00
282.19,86.00
284.38,103.00
286.58,150.00
288.77,151.00
290.96,242.00
293.15,259.00
295.34,371.00
297.53,470.00
299.72,592.00
301.90,727.00
304.09,968.00
306.27,1167.00
308.46,1436.00
310.64,1785.00
312.82,2028.00
315.00,2318.00
317.18,2568.00
319.36,2800.00
321.54,2972.00
323.72,3104.00
325.89,3156.00
328.07,3217.00
330.24,3200.00
332.42,3185.00
334.59,3192.00
336.76,3129.00
338.93,3154.00
341.10,3137.00
343.27,3078.00
345.43,3072.00
347.60,3044.00
349.77,2971.00
351.93,2956.00
354.09,2972.00
356.26,2962.00
358.42,2955.00
360.58,2987.00
362.74,2972.00
364.90,2912.00
367.06,2922.00
369.21,2897.00
371.37,2926.00
373.52,2945.00
375.68,2861.00
377.83,2855.00
379.98,2876.00
382.13,2812.00
384.28,2897.00
386.43,2886.00
388.58,2886.00
390.73,2911.00
392.87,2867.00
395.02,2865.00
397.16,2888.00
399.31,2886.00
401.45,2983.00
403.59,3006.00
405.73,3067.00
407.87,3107.00
410.01,3121.00
412.15,3231.00
414.28,3280.00
416.42,3225.00
418.55,3297.00
420.69,3268.00
422.82,3276.00
424.95,3204.00
427.08,3215.00
429.21,3204.00
431.34,3228.00
433.47,3251.00
435.60,3335.00
437.72,3383.00
439.85,3379.00
441.97,3299.00
444.10,3243.00
446.22,3117.00
448.34,3034.00
450.46,3008.00
452.58,2899.00
454.70,2907.00
456.81,2899.00
458.93,2877.00
461.05,2897.00
463.16,2842.00
465.27,2888.00
467.39,2827.00
469.50,2821.00
471.61,2760.00
473.72,2804.00
475.83,2808.00
477.93,2789.00
480.04,2823.00
482.15,2844.00
484.25,2826.00
486.35,2876.00
488.46,2877.00
490.56,2918.00
492.66,2844.00
494.76,2810.00
496.86,2827.00
498.96,2808.00
501.05,2861.00
503.15,2892.00
505.24,2882.00
507.34,2889.00
509.43,2914.00
511.52,2870.00
513.61,2865.00
515.70,2861.00
517.79,2844.00
519.88,2830.00
521.97,2861.00
524.06,2878.00
526.14,2890.00
528.23,2881.00
530.31,2867.00
532.39,2845.00
534.47,2897.00
536.55,2789.00
538.63,2768.00
540.71,2769.00
542.79,2743.00
544.87,2673.00
546.94,2684.00
549.02,2671.00
551.09,2694.00
553.16,2707.00
555.23,2730.00
557.30,2711.00
559.37,2712.00
561.44,2741.00
563.51,2751.00
565.58,2737.00
567.64,2752.00
569.71,2745.00
571.77,2681.00
573.84,2680.00
575.90,2705.00
577.96,2677.00
580.02,2684.00
582.08,2659.00
584.14,2613.00
586.19,2650.00
588.25,2591.00
590.30,2598.00
592.36,2584.00
594.41,2574.00
596.46,2608.00
598.51,2593.00
600.56,2620.00
602.61,2667.00
604.66,2654.00
606.71,2635.00
608.76,2701.00
610.80,2610.00
612.85,2696.00
614.89,2618.00
616.93,2646.00
618.97,2648.00
621.01,2633.00
623.05,2694.00
625.09,2692.00
627.13,2688.00
629.17,2648.00
631.20,2608.00
633.24,2650.00
635.27,2601.00
637.30,2633.00
639.33,2663.00
641.36,2644.00
643.39,2684.00
645.42,2684.00
647.45,2587.00
649.48,2620.00
651.50,2614.00
653.53,2591.00
655.55,2605.00
657.58,2583.00
659.60,2580.00
661.62,2579.00
663.64,2602.00
665.66,2542.00
667.68,2530.00
669.69,2530.00
671.71,2551.00
673.72,2554.00
675.74,2576.00
677.75,2551.00
679.76,2591.00
681.77,2530.00
683.78,2595.00
685.79,2616.00
687.80,2577.00
689.81,2593.00
691.81,2608.00
693.82,2633.00
695.82,2618.00
697.83,2629.00
699.83,2690.00
701.83,2644.00
703.83,2679.00
705.83,2699.00
707.83,2764.00
709.83,2773.00
711.82,2779.00
713.82,2796.00
715.81,2835.00
717.81,2852.00
719.80,2874.00
721.79,2920.00
723.78,2875.00
725.77,2867.00
727.76,2880.00
729.75,2956.00
731.73,2907.00
733.72,2859.00
735.70,2837.00
737.69,2793.00
739.67,2745.00
741.65,2792.00
743.63,2802.00
745.61,2863.00
747.59,2878.00
749.57,2983.00
751.55,3055.00
753.52,3085.00
755.50,3207.00
757.47,3116.00
759.44,3137.00
761.41,3078.00
763.39,3097.00
765.36,3013.00
767.32,3002.00
769.29,3021.00
771.26,2935.00
773.22,2901.00
775.19,2879.00
777.15,2834.00
779.12,2817.00
781.08,2857.00
783.04,2891.00
785.00,2868.00
786.96,2932.00
788.92,2952.00
790.87,3052.00
792.83,3066.00
794.79,3108.00
796.74,3152.00
798.69,3211.00
800.64,3131.00
802.60,3051.00
804.55,3030.00
806.50,2964.00
808.44,2909.00
810.39,2853.00
812.34,2797.00
814.28,2785.00
816.23,2825.00
818.17,2790.00
820.11,2775.00
822.05,2798.00
823.99,2785.00
825.93,2791.00
827.87,2776.00
829.81,2780.00
831.75,2783.00
833.68,2747.00
835.62,2791.00
837.55,2799.00
839.48,2838.00
841.41,2728.00
843.34,2755.00
845.27,2726.00
847.20,2749.00
849.13,2707.00
851.06,2722.00
852.98,2719.00
854.91,2701.00
856.83,2720.00
858.75,2701.00
860.67,2682.00
862.59,2667.00
864.51,2667.00
866.43,2644.00
868.35,2627.00
870.27,2642.00
872.18,2661.00
874.10,2637.00
876.01,2649.00
877.92,2686.00
879.84,2669.00
881.75,2623.00
883.66,2654.00
885.56,2634.00
887.47,2641.00
889.38,2634.00
891.28,2694.00
893.19,2645.00
895.09,2653.00
897.00,2665.00
898.90,2677.00
900.80,2686.00
902.70,2711.00
904.60,2751.00
906.50,2774.00
908.39,2843.00
910.29,2829.00
912.18,2853.00
914.08,2861.00
915.97,2871.00
917.86,2867.00
919.75,2790.00
921.64,2780.00
923.53,2768.00
925.42,2758.00
927.31,2770.00
929.19,2764.00
931.08,2800.00
932.96,2821.00
934.85,2866.00
936.73,2920.00
938.61,2958.00
940.49,2915.00
942.37,2852.00
944.25,2810.00
946.12,2813.00
948.00,2740.00
949.87,2756.00
951.75,2730.00
953.62,2762.00
955.49,2705.00
957.37,2719.00
959.24,2728.00
961.10,2663.00
962.97,2700.00
964.84,2690.00
966.71,2653.00
968.57,2699.00
970.44,2629.00
972.30,2632.00
974.16,2633.00
976.02,2640.00
977.88,2610.00
979.74,2597.00
981.60,2637.00
983.46,2650.00
985.31,2601.00
987.17,2650.00
989.02,2636.00
990.88,2610.00
992.73,2589.00
994.58,2627.00
996.43,2681.00
998.28,2664.00
1000.13,2658.00
1001.98,2720.00
1003.82,2699.00
1005.67,2680.00
1007.51,2674.00
1009.36,2766.00
1011.20,2726.00
1013.04,2728.00
1014.88,2728.00
1016.72,2692.00
1018.56,2693.00
1020.40,2709.00
1022.23,2621.00
1024.07,2688.00
1025.90,2616.00
1027.74,2612.00
1029.57,2627.00
1031.40,2612.00
1033.23,2599.00
1035.06,2553.00
1036.89,2595.00
1038.72,2572.00
1040.54,2552.00
1042.37,2486.00
1044.19,2480.00
1046.02,2477.00
1047.84,2484.00
1049.66,2500.00
1051.48,2498.00
1053.30,2518.00
1055.12,2489.00
1056.94,2494.00
1058.76,2488.00
1060.57,2486.00
1062.39,2511.00
1064.20,2483.00
1066.01,2520.00
1067.82,2511.00
1069.63,2498.00
1071.44,2454.00
1073.25,2435.00
1075.06,2462.00
1076.87,2458.00
1078.67,2506.00
1080.48,2414.00
1082.28,2452.00
1084.08,2447.00
1085.89,2443.00
1087.69,2477.00
1089.49,2454.00
1091.29,2505.00
1093.08,2487.00
1094.88,2471.00
1096.68,2478.00
1098.47,2494.00
1100.27,2471.00
1102.06,2513.00
1103.85,2448.00
1105.64,2477.00
1107.43,2420.00
1109.22,2500.00
1111.01,2463.00
1112.79,2511.00
1114.58,2529.00
1116.37,2528.00
1118.15,2518.00
1119.93,2536.00
1121.71,2549.00
1123.49,2565.00
1125.27,2562.00
1127.05,2530.00
1128.83,2540.00
1130.61,2538.00
1132.38,2555.00
1134.16,2520.00
1135.93,2551.00
1137.71,2543.00
1139.48,2526.00
1141.25,2541.00
1143.02,2478.00
1144.79,2504.00
1146.56,2478.00
1148.32,2515.00
1150.09,2553.00
1151.86,2553.00
1153.62,2581.00
1155.38,2652.00
1157.14,2688.00
1158.91,2755.00
1160.67,2823.00
1162.42,2974.00
1164.18,3093.00
1165.94,3211.00
1167.70,3251.00
1169.45,3323.00
1171.21,3226.00
1172.96,3239.00
1174.71,3149.00
1176.46,3044.00
1178.21,2935.00
1179.96,2882.00
1181.71,2810.00
1183.46,2755.00
1185.20,2648.00
1186.95,2694.00
1188.69,2597.00
1190.44,2603.00
1192.18,2549.00
1193.92,2532.00
1195.66,2487.00
1197.40,2449.00
1199.14,2421.00
1200.87,2446.00
1202.61,2476.00
1204.35,2473.00
1206.08,2545.00
1207.81,2579.00
1209.55,2618.00
1211.28,2747.00
1213.01,2798.00
1214.74,2865.00
1216.46,2827.00
1218.19,2796.00
1219.92,2749.00
1221.64,2636.00
1223.37,2568.00
1225.09,2448.00
1226.81,2483.00
1228.53,2468.00
1230.26,2484.00
1231.97,2470.00
1233.69,2439.00
1235.41,2407.00
1237.13,2450.00
1238.84,2420.00
1240.56,2439.00
1242.27,2410.00
1243.98,2416.00
1245.69,2447.00
1247.40,2393.00
1249.11,2397.00
1250.82,2372.00
1252.53,2401.00
1254.24,2403.00
1255.94,2431.00
1257.65,2397.00
1259.35,2409.00
1261.05,2443.00
1262.75,2378.00
1264.45,2362.00
1266.15,2378.00
1267.85,2323.00
1269.55,2357.00
1271.25,2433.00
1272.94,2416.00
1274.64,2341.00
1276.33,2421.00
1278.02,2426.00
1279.71,2454.00
1281.40,2448.00
1283.09,2507.00
1284.78,2522.00
1286.47,2492.00
1288.16,2559.00
1289.84,2614.00
1291.53,2704.00
1293.21,2717.00
1294.89,2763.00
1296.57,2736.00
1298.25,2732.00
1299.93,2698.00
1301.61,2687.00
1303.29,2562.00
1304.97,2557.00
1306.64,2437.00
1308.32,2424.00
1309.99,2393.00
1311.66,2369.00
1313.33,2319.00
1315.01,2309.00
1316.67,2340.00
1318.34,2311.00
1320.01,2300.00
1321.68,2288.00
1323.34,2300.00
1325.01,2303.00
1326.67,2307.00
1328.33,2322.00
1330.00,2355.00
1331.66,2426.00
1333.32,2419.00
1334.98,2496.00
1336.63,2497.00
1338.29,2505.00
1339.95,2513.00
1341.60,2467.00
1343.25,2463.00
1344.91,2532.00
1346.56,2546.00
1348.21,2572.00
1349.86,2637.00
1351.51,2652.00
1353.16,2718.00
1354.80,2808.00
1356.45,2945.00
1358.09,3072.00
1359.74,3123.00
1361.38,3252.00
1363.02,3337.00
1364.66,3430.00
1366.30,3439.00
1367.94,3392.00
1369.58,3418.00
1371.22,3304.00
1372.85,3276.00
1374.49,3225.00
1376.12,3215.00
1377.75,3137.00
1379.38,3103.00
1381.02,3069.00
1382.65,3061.00
1384.27,3014.00
1385.90,3032.00
1387.53,3027.00
1389.15,2994.00
1390.78,2979.00
1392.40,2894.00
1394.03,2842.00
1395.65,2698.00
1397.27,2610.00
1398.89,2543.00
1400.51,2443.00
1402.13,2391.00
1403.74,2395.00
1405.36,2361.00
1406.97,2322.00
1408.59,2298.00
1410.20,2305.00
1411.81,2372.00
1413.42,2397.00
1415.03,2368.00
1416.64,2368.00
1418.25,2391.00
1419.86,2409.00
1421.46,2439.00
1423.07,2382.00
1424.67,2456.00
1426.28,2435.00
1427.88,2501.00
1429.48,2522.00
1431.08,2545.00
1432.68,2583.00
1434.28,2627.00
1435.87,2591.00
1437.47,2652.00
1439.06,2636.00
1440.66,2634.00
1442.25,2657.00
1443.84,2633.00
1445.43,2572.00
1447.02,2565.00
1448.61,2561.00
1450.20,2557.00
1451.79,2496.00
1453.37,2501.00
1454.96,2446.00
1456.54,2388.00
1458.13,2381.00
1459.71,2357.00
1461.29,2348.00
1462.87,2371.00
1464.45,2351.00
1466.03,2280.00
1467.60,2256.00
1469.18,2321.00
1470.76,2248.00
1472.33,2224.00
1473.90,2237.00
1475.48,2256.00
1477.05,2241.00
1478.62,2184.00
1480.19,2144.00
1481.75,2140.00
1483.32,2167.00
1484.89,2197.00
1486.45,2146.00
1488.02,2178.00
1489.58,2155.00
1491.14,2139.00
1492.70,2133.00
1494.26,2109.00
1495.82,2073.00
1497.38,2075.00
1498.94,2006.00
1500.50,1997.00
1502.05,1980.00
1503.61,1952.00
1505.16,1982.00
1506.71,1965.00
1508.26,1982.00
1509.81,1948.00
1511.36,1962.00
1512.91,1972.00
1514.46,2005.00
1516.00,1965.00
1517.55,1981.00
1519.09,1984.00
1520.64,1995.00
1522.18,1997.00
1523.72,2011.00
1525.26,2042.00
1526.80,2106.00
1528.34,2098.00
1529.88,2128.00
1531.41,2159.00
1532.95,2172.00
1534.48,2131.00
1536.02,2201.00
1537.55,2186.00
1539.08,2182.00
1540.61,2168.00
1542.14,2163.00
1543.67,2114.00
1545.19,2104.00
1546.72,2099.00
1548.25,2105.00
1549.77,2074.00
1551.29,2087.00
1552.82,2055.00
1554.34,2085.00
1555.86,2076.00
1557.38,2095.00
1558.90,2042.00
1560.41,1999.00
1561.93,2011.00
1563.45,2032.00
1564.96,1990.00
1566.47,1997.00
1567.99,2014.00
1569.50,2028.00
1571.01,2072.00
1572.52,2049.00
1574.03,2119.00
1575.53,2144.00
1577.04,2226.00
1578.55,2309.00
1580.05,2325.00
1581.55,2336.00
1583.06,2397.00
1584.56,2355.00
1586.06,2327.00
1587.56,2316.00
1589.06,2254.00
1590.56,2199.00
1592.05,2142.00
1593.55,2058.00
1595.04,2059.00
1596.54,2066.00
1598.03,1981.00
1599.52,2014.00
1601.01,2064.00
1602.50,2116.00
1603.99,2127.00
1605.48,2180.00
1606.96,2214.00
1608.45,2352.00
1609.93,2441.00
1611.42,2555.00
1612.90,2658.00
1614.38,2632.00
1615.86,2617.00
1617.34,2483.00
1618.82,2409.00
1620.30,2241.00
1621.78,2194.00
1623.25,2110.00
1624.73,2075.00
1626.20,2058.00
1627.67,2049.00
1629.14,2026.00
1630.62,2012.00
1632.08,2008.00
1633.55,2035.00
1635.02,2022.00
1636.49,1994.00
1637.95,1969.00
1639.42,2003.00
1640.88,1945.00
1642.35,1952.00
1643.81,1944.00
1645.27,1944.00
1646.73,1883.00
1648.19,1843.00
1649.64,1893.00
1651.10,1870.00
1652.56,1863.00
1654.01,1807.00
1655.47,1838.00
1656.92,1834.00
1658.37,1803.00
1659.82,1761.00
1661.27,1766.00
1662.72,1754.00
1664.17,1769.00
1665.62,1733.00
1667.06,1747.00
1668.51,1690.00
1669.95,1699.00
1671.39,1701.00
1672.84,1655.00
1674.28,1686.00
1675.72,1640.00
1677.16,1657.00
1678.59,1629.00
1680.03,1596.00
1681.47,1636.00
1682.90,1579.00
1684.34,1575.00
1685.77,1554.00
1687.20,1552.00
1688.63,1503.00
1690.06,1549.00
1691.49,1497.00
1692.92,1493.00
1694.35,1486.00
1695.77,1487.00
1697.20,1490.00
1698.62,1495.00
1700.04,1451.00
1701.47,1419.00
1702.89,1418.00
1704.31,1430.00
1705.73,1411.00
1707.14,1392.00
1708.56,1412.00
1709.98,1396.00
1711.39,1423.00
1712.81,1398.00
1714.22,1343.00
1715.63,1355.00
1717.04,1343.00
1718.45,1357.00
1719.86,1292.00
1721.27,1368.00
1722.68,1342.00
1724.08,1300.00
1725.49,1299.00
1726.89,1300.00
1728.30,1290.00
1729.70,1291.00
1731.10,1268.00
1732.50,1278.00
1733.90,1271.00
1735.30,1256.00
1736.69,1285.00
1738.09,1233.00
1739.49,1257.00
1740.88,1288.00
1742.27,1231.00
1743.67,1230.00
1745.06,1201.00
1746.45,1221.00
1747.84,1204.00
1749.23,1211.00
1750.61,1214.00
1752.00,1179.00
1753.38,1217.00
1754.77,1163.00
1756.15,1195.00
1757.53,1181.00
1758.92,1145.00
1760.30,1141.00
1761.68,1172.00
1763.05,1143.00
1764.43,1189.00
1765.81,1151.00
1767.18,1134.00
1768.56,1155.00
1769.93,1124.00
1771.30,1139.00
1772.67,1120.00
1774.05,1118.00
1775.41,1113.00
1776.78,1105.00
1778.15,1123.00
1779.52,1107.00
1780.88,1107.00
1782.25,1105.00
1783.61,1084.00
1784.97,1094.00
1786.33,1078.00
1787.69,1092.00
1789.05,1115.00
1790.41,1092.00
1791.77,1098.00
1793.13,1084.00
1794.48,1076.00
1795.84,1031.00
1797.19,1090.00
1798.54,1069.00
1799.89,1048.00
1801.25,1052.00
1802.59,1047.00
1803.94,1031.00
1805.29,1037.00
1806.64,1048.00
1807.98,1022.00
1809.33,1031.00
1810.67,1031.00
1812.01,1023.00
1813.36,1050.00
1814.70,1024.00
1816.04,1024.00
1817.37,1031.00
1818.71,1012.00
1820.05,989.00
1821.38,1031.00
1822.72,1029.00
1824.05,1005.00
1825.39,1020.00
1826.72,992.00
1828.05,999.00
1829.38,967.00
1830.71,1025.00
1832.03,987.00
1833.36,1012.00
1834.69,1004.00
1836.01,972.00
1837.34,993.00
1838.66,972.00
1839.98,984.00
1841.30,970.00
1842.62,991.00
1843.94,971.00
1845.26,976.00
1846.57,995.00
1847.89,913.00
1849.20,961.00
1850.52,980.00
1851.83,957.00
1853.14,985.00
1854.45,935.00
1855.76,941.00
1857.07,932.00
1858.38,935.00
1859.69,938.00
1860.99,960.00
1862.30,962.00
1863.60,940.00
1864.90,924.00
1866.21,955.00
1867.51,943.00
1868.81,928.00
1870.11,942.00
1871.40,955.00
1872.70,947.00
1874.00,980.00
1875.29,922.00
1876.59,939.00
1877.88,938.00
1879.17,907.00
1880.46,944.00
1881.75,900.00
1883.04,932.00
1884.33,920.00
1885.62,917.00
1886.90,906.00
1888.19,911.00
1889.47,917.00
1890.75,898.00
1892.04,902.00
1893.32,885.00
1894.60,893.00
1895.88,898.00
1897.15,890.00
1898.43,900.00
1899.71,904.00
1900.98,881.00
1902.26,903.00
1903.53,879.00
1904.80,922.00
1906.07,867.00
1907.34,915.00
1908.61,886.00
1909.88,859.00
1911.15,850.00
1912.41,853.00
1913.68,864.00
1914.94,896.00
1916.21,839.00
1917.47,885.00
1918.73,883.00
1919.99,856.00
1921.25,833.00
1922.51,868.00
1923.76,852.00
1925.02,856.00
1926.28,865.00
1927.53,829.00
1928.78,870.00
1930.04,835.00
1931.29,839.00
1932.54,836.00
1933.79,847.00
1935.03,823.00
1936.28,854.00
1937.53,829.00
1938.77,839.00
1940.02,837.00
1941.26,831.00
1942.50,814.00
1943.75,831.00
1944.99,795.00
1946.22,820.00
1947.46,824.00
1948.70,816.00
1949.94,808.00
1951.17,812.00
1952.41,803.00
1953.64,814.00
1954.87,824.00
1956.10,812.00
1957.33,799.00
1958.56,820.00
1959.79,818.00
1961.02,801.00
1962.25,786.00
1963.47,791.00
1964.70,799.00
1965.92,795.00
1967.14,784.00
1968.36,809.00
1969.58,787.00
1970.80,818.00
1972.02,805.00
1973.24,761.00
1974.46,789.00
1975.67,797.00
1976.89,773.00
1978.10,759.00
1979.31,784.00
1980.52,776.00
1981.73,788.00
1982.94,803.00
1984.15,764.00
1985.36,757.00
1986.57,783.00
1987.77,788.00
1988.98,780.00
1990.18,751.00
1991.38,759.00
1992.58,731.00
1993.78,767.00
1994.98,785.00
1996.18,759.00
1997.38,750.00
1998.58,749.00
1999.77,761.00
2000.97,767.00
2002.16,778.00
