Integration Time,4000
Timestamp,2022-11-21 13_33_12.040000
Note,
Temperature,9.97
CCD C0,801.50982666
CCD C1,0.141540005803
CCD C2,-5.58820011065e-06
CCD C3,-8.47330028364e-09
CCD Offset,0
CCD Gain,NA
Laser Wavelength,785.0
Laser Enable,0
Laser Power,100
Laser Temperature,0.00
Pixel Count,1024

Wavenumber,Spectrum
262.40,99.00
264.60,114.00
266.80,141.00
269.01,160.00
271.21,186.00
273.40,209.00
275.60,289.00
277.80,327.00
280.00,401.00
282.19,517.00
284.38,557.00
286.58,738.00
288.77,974.00
290.96,1276.00
293.15,1552.00
295.34,2064.00
297.53,2587.00
299.72,3394.00
301.90,4356.00
304.09,5544.00
306.27,7048.00
308.46,8642.00
310.64,10492.00
312.82,12558.00
315.00,14399.00
317.18,16195.00
319.36,17863.00
321.54,19233.00
323.72,20189.00
325.89,20918.00
328.07,21440.00
330.24,21592.00
332.42,21595.00
334.59,21618.00
336.76,21643.00
338.93,21717.00
341.10,21811.00
343.27,21633.00
345.43,21755.00
347.60,21709.00
349.77,21682.00
351.93,21800.00
354.09,21973.00
356.26,21923.00
358.42,22086.00
360.58,22052.00
362.74,22031.00
364.90,22086.00
367.06,22116.00
369.21,22017.00
371.37,22094.00
373.52,22100.00
375.68,21936.00
377.83,21865.00
379.98,21903.00
382.13,21816.00
384.28,21854.00
386.43,21761.00
388.58,21843.00
390.73,21843.00
392.87,21790.00
395.02,21773.00
397.16,21824.00
399.31,21748.00
401.45,21919.00
403.59,22011.00
405.73,22250.00
407.87,22484.00
410.01,22760.00
412.15,23024.00
414.28,23409.00
416.42,23654.00
418.55,24323.00
420.69,25025.00
422.82,25680.00
424.95,26618.00
427.08,27181.00
429.21,27716.00
431.34,28138.00
433.47,28238.00
435.60,27997.00
437.72,27789.00
439.85,27029.00
441.97,26264.00
444.10,25776.00
446.22,25092.00
448.34,24530.00
450.46,24154.00
452.58,23612.00
454.70,23191.00
456.81,22853.00
458.93,22404.00
461.05,22393.00
463.16,21759.00
465.27,21553.00
467.39,21336.00
469.50,21006.00
471.61,21021.00
473.72,20945.00
475.83,20777.00
477.93,20688.00
480.04,20638.00
482.15,20570.00
484.25,20570.00
486.35,20535.00
488.46,20437.00
490.56,20438.00
492.66,20193.00
494.76,20068.00
496.86,19923.00
498.96,19731.00
501.05,19553.00
503.15,19379.00
505.24,19348.00
507.34,19099.00
509.43,19061.00
511.52,18938.00
513.61,18879.00
515.70,18751.00
517.79,18688.00
519.88,18640.00
521.97,18452.00
524.06,18474.00
526.14,18259.00
528.23,18242.00
530.31,18113.00
532.39,18173.00
534.47,17988.00
536.55,18049.00
538.63,17925.00
540.71,17846.00
542.79,17882.00
544.87,17829.00
546.94,17709.00
549.02,17814.00
551.09,17686.00
553.16,17629.00
555.23,17534.00
557.30,17544.00
559.37,17423.00
561.44,17380.00
563.51,17423.00
565.58,17325.00
567.64,17083.00
569.71,17213.00
571.77,17115.00
573.84,16952.00
575.90,16961.00
577.96,16889.00
580.02,16792.00
582.08,16735.00
584.14,16647.00
586.19,16503.00
588.25,16569.00
590.30,16290.00
592.36,16334.00
594.41,16204.00
596.46,16088.00
598.51,16073.00
600.56,16000.00
602.61,15938.00
604.66,15871.00
606.71,15879.00
608.76,15847.00
610.80,15690.00
612.85,15664.00
614.89,15604.00
616.93,15522.00
618.97,15493.00
621.01,15420.00
623.05,15314.00
625.09,15342.00
627.13,15261.00
629.17,15147.00
631.20,15034.00
633.24,14922.00
635.27,15024.00
637.30,14986.00
639.33,14865.00
641.36,14760.00
643.39,14722.00
645.42,14677.00
647.45,14556.00
649.48,14437.00
651.50,14455.00
653.53,14367.00
655.55,14233.00
657.58,14222.00
659.60,14236.00
661.62,14137.00
663.64,14173.00
665.66,13974.00
667.68,13986.00
669.69,13854.00
671.71,13853.00
673.72,13862.00
675.74,13792.00
677.75,13762.00
679.76,13792.00
681.77,13725.00
683.78,13683.00
685.79,13626.00
687.80,13538.00
689.81,13545.00
691.81,13552.00
693.82,13470.00
695.82,13427.00
697.83,13411.00
699.83,13406.00
701.83,13244.00
703.83,13263.00
705.83,13302.00
707.83,13153.00
709.83,13162.00
711.82,13001.00
713.82,13046.00
715.81,12987.00
717.81,12949.00
719.80,12925.00
721.79,12993.00
723.78,12784.00
725.77,12764.00
727.76,12599.00
729.75,12593.00
731.73,12574.00
733.72,12521.00
735.70,12350.00
737.69,12434.00
739.67,12310.00
741.65,12322.00
743.63,12270.00
745.61,12175.00
747.59,12207.00
749.57,12184.00
751.55,12093.00
753.52,12163.00
755.50,12005.00
757.47,11926.00
759.44,12012.00
761.41,11958.00
763.39,12028.00
765.36,11707.00
767.32,11899.00
769.29,11847.00
771.26,11934.00
773.22,11952.00
775.19,11962.00
777.15,11895.00
779.12,11895.00
781.08,11934.00
783.04,11986.00
785.00,11944.00
786.96,11856.00
788.92,11920.00
790.87,12027.00
792.83,12001.00
794.79,11966.00
796.74,12094.00
798.69,12186.00
800.64,12278.00
802.60,12440.00
804.55,12730.00
806.50,13012.00
808.44,13768.00
810.39,14524.00
812.34,16134.00
814.28,18008.00
816.23,20274.00
818.17,21236.00
820.11,19858.00
822.05,17113.00
823.99,14783.00
825.93,13457.00
827.87,12896.00
829.81,12491.00
831.75,12363.00
833.68,12338.00
835.62,12227.00
837.55,12373.00
839.48,12367.00
841.41,12510.00
843.34,12618.00
845.27,12679.00
847.20,13003.00
849.13,13099.00
851.06,13330.00
852.98,13711.00
854.91,14144.00
856.83,14621.00
858.75,15320.00
860.67,16018.00
862.59,17104.00
864.51,18612.00
866.43,20471.00
868.35,23237.00
870.27,27080.00
872.18,32499.00
874.10,40355.00
876.01,51036.00
877.92,62184.00
879.84,64122.00
881.75,64189.00
883.66,64240.00
885.56,64282.00
887.47,64297.00
889.38,59050.00
891.28,43189.00
893.19,33917.00
895.09,27732.00
897.00,23420.00
898.90,20492.00
900.80,18423.00
902.70,16863.00
904.60,15730.00
906.50,14996.00
908.39,14166.00
910.29,13659.00
912.18,13225.00
914.08,12740.00
915.97,12491.00
917.86,12152.00
919.75,11914.00
921.64,11730.00
923.53,11545.00
925.42,11414.00
927.31,11239.00
929.19,11247.00
931.08,11182.00
932.96,11094.00
934.85,10944.00
936.73,11026.00
938.61,10972.00
940.49,10863.00
942.37,10727.00
944.25,10819.00
946.12,10867.00
948.00,10879.00
949.87,10906.00
951.75,11018.00
953.62,10809.00
955.49,10697.00
957.37,10434.00
959.24,10119.00
961.10,9919.00
962.97,9759.00
964.84,9626.00
966.71,9504.00
968.57,9473.00
970.44,9464.00
972.30,9375.00
974.16,9377.00
976.02,9306.00
977.88,9411.00
979.74,9430.00
981.60,9363.00
983.46,9468.00
985.31,9464.00
987.17,9481.00
989.02,9615.00
990.88,9618.00
992.73,9690.00
994.58,9854.00
996.43,9841.00
998.28,10116.00
1000.13,10269.00
1001.98,10542.00
1003.82,10649.00
1005.67,10659.00
1007.51,10862.00
1009.36,11110.00
1011.20,11359.00
1013.04,11760.00
1014.88,12067.00
1016.72,12494.00
1018.56,13020.00
1020.40,13624.00
1022.23,14093.00
1024.07,14855.00
1025.90,15677.00
1027.74,16592.00
1029.57,17494.00
1031.40,18478.00
1033.23,19250.00
1035.06,20191.00
1036.89,21238.00
1038.72,22480.00
1040.54,23662.00
1042.37,25231.00
1044.19,26903.00
1046.02,28539.00
1047.84,29665.00
1049.66,30685.00
1051.48,30671.00
1053.30,30296.00
1055.12,29024.00
1056.94,27209.00
1058.76,25198.00
1060.57,23368.00
1062.39,21807.00
1064.20,20678.00
1066.01,19916.00
1067.82,19223.00
1069.63,18991.00
1071.44,18861.00
1073.25,18993.00
1075.06,19278.00
1076.87,19763.00
1078.67,20456.00
1080.48,21234.00
1082.28,22406.00
1084.08,23486.00
1085.89,25073.00
1087.69,26675.00
1089.49,28216.00
1091.29,29648.00
1093.08,30851.00
1094.88,31222.00
1096.68,30953.00
1098.47,29544.00
1100.27,27722.00
1102.06,25800.00
1103.85,23591.00
1105.64,21691.00
1107.43,20431.00
1109.22,19210.00
1111.01,18565.00
1112.79,17732.00
1114.58,17275.00
1116.37,16895.00
1118.15,16440.00
1119.93,16062.00
1121.71,15797.00
1123.49,15305.00
1125.27,14926.00
1127.05,14416.00
1128.83,13998.00
1130.61,13463.00
1132.38,13024.00
1134.16,12454.00
1135.93,11953.00
1137.71,11518.00
1139.48,11019.00
1141.25,10847.00
1143.02,10402.00
1144.79,10172.00
1146.56,9951.00
1148.32,9765.00
1150.09,9666.00
1151.86,9523.00
1153.62,9388.00
1155.38,9364.00
1157.14,9260.00
1158.91,9156.00
1160.67,8972.00
1162.42,8960.00
1164.18,8884.00
1165.94,8718.00
1167.70,8540.00
1169.45,8399.00
1171.21,8265.00
1172.96,8187.00
1174.71,8024.00
1176.46,7856.00
1178.21,7758.00
1179.96,7731.00
1181.71,7610.00
1183.46,7611.00
1185.20,7553.00
1186.95,7466.00
1188.69,7387.00
1190.44,7371.00
1192.18,7319.00
1193.92,7303.00
1195.66,7309.00
1197.40,7311.00
1199.14,7301.00
1200.87,7178.00
1202.61,7280.00
1204.35,7185.00
1206.08,7284.00
1207.81,7164.00
1209.55,7252.00
1211.28,7133.00
1213.01,7210.00
1214.74,7338.00
1216.46,7362.00
1218.19,7364.00
1219.92,7387.00
1221.64,7442.00
1223.37,7459.00
1225.09,7541.00
1226.81,7642.00
1228.53,7682.00
1230.26,7746.00
1231.97,7729.00
1233.69,7870.00
1235.41,8011.00
1237.13,8053.00
1238.84,8235.00
1240.56,8308.00
1242.27,8429.00
1243.98,8571.00
1245.69,8659.00
1247.40,8822.00
1249.11,8920.00
1250.82,9190.00
1252.53,9418.00
1254.24,9576.00
1255.94,9853.00
1257.65,10276.00
1259.35,10628.00
1261.05,11129.00
1262.75,11639.00
1264.45,12268.00
1266.15,13062.00
1267.85,13935.00
1269.55,14794.00
1271.25,15613.00
1272.94,16307.00
1274.64,16763.00
1276.33,16872.00
1278.02,16721.00
1279.71,16181.00
1281.40,15354.00
1283.09,14416.00
1284.78,13620.00
1286.47,12820.00
1288.16,12168.00
1289.84,11618.00
1291.53,11138.00
1293.21,10790.00
1294.89,10461.00
1296.57,10119.00
1298.25,9883.00
1299.93,9678.00
1301.61,9502.00
1303.29,9369.00
1304.97,9247.00
1306.64,9128.00
1308.32,8962.00
1309.99,8990.00
1311.66,8850.00
1313.33,8886.00
1315.01,8763.00
1316.67,8648.00
1318.34,8660.00
1320.01,8705.00
1321.68,8608.00
1323.34,8531.00
1325.01,8559.00
1326.67,8507.00
1328.33,8477.00
1330.00,8483.00
1331.66,8546.00
1333.32,8521.00
1334.98,8673.00
1336.63,8694.00
1338.29,8721.00
1339.95,8732.00
1341.60,8793.00
1343.25,8851.00
1344.91,8695.00
1346.56,8737.00
1348.21,8697.00
1349.86,8831.00
1351.51,8688.00
1353.16,8724.00
1354.80,8773.00
1356.45,8840.00
1358.09,8886.00
1359.74,8907.00
1361.38,8910.00
1363.02,9036.00
1364.66,9160.00
1366.30,9099.00
1367.94,9268.00
1369.58,9421.00
1371.22,9658.00
1372.85,9760.00
1374.49,9938.00
1376.12,10077.00
1377.75,10400.00
1379.38,10528.00
1381.02,10624.00
1382.65,10868.00
1384.27,11033.00
1385.90,10992.00
1387.53,10961.00
1389.15,11139.00
1390.78,11241.00
1392.40,11325.00
1394.03,11302.00
1395.65,11485.00
1397.27,11566.00
1398.89,11792.00
1400.51,12449.00
1402.13,12046.00
1403.74,12258.00
1405.36,12420.00
1406.97,12736.00
1408.59,12934.00
1410.20,13166.00
1411.81,13265.00
1413.42,13619.00
1415.03,13828.00
1416.64,14076.00
1418.25,14241.00
1419.86,14433.00
1421.46,14740.00
1423.07,15054.00
1424.67,15396.00
1426.28,15679.00
1427.88,16261.00
1429.48,16596.00
1431.08,17066.00
1432.68,17580.00
1434.28,18307.00
1435.87,19024.00
1437.47,20087.00
1439.06,21276.00
1440.66,22526.00
1442.25,24173.00
1443.84,26014.00
1445.43,27926.00
1447.02,29954.00
1448.61,31903.00
1450.20,33854.00
1451.79,35151.00
1453.37,35934.00
1454.96,36146.00
1456.54,35545.00
1458.13,34235.00
1459.71,32315.00
1461.29,30093.00
1462.87,28086.00
1464.45,26151.00
1466.03,24464.00
1467.60,22876.00
1469.18,21706.00
1470.76,20745.00
1472.33,19956.00
1473.90,19480.00
1475.48,19127.00
1477.05,18991.00
1478.62,18947.00
1480.19,18858.00
1481.75,18820.00
1483.32,18493.00
1484.89,18047.00
1486.45,17467.00
1488.02,16853.00
1489.58,16052.00
1491.14,15357.00
1492.70,14595.00
1494.26,13779.00
1495.82,13172.00
1497.38,12586.00
1498.94,12167.00
1500.50,11566.00
1502.05,11204.00
1503.61,10879.00
1505.16,10629.00
1506.71,10250.00
1508.26,9975.00
1509.81,9818.00
1511.36,9540.00
1512.91,9297.00
1514.46,9099.00
1516.00,8832.00
1517.55,8662.00
1519.09,8535.00
1520.64,8338.00
1522.18,8213.00
1523.72,7994.00
1525.26,7944.00
1526.80,7722.00
1528.34,7697.00
1529.88,7534.00
1531.41,7371.00
1532.95,7244.00
1534.48,7133.00
1536.02,7046.00
1537.55,6923.00
1539.08,6896.00
1540.61,6780.00
1542.14,6683.00
1543.67,6529.00
1545.19,6553.00
1546.72,6392.00
1548.25,6352.00
1549.77,6308.00
1551.29,6157.00
1552.82,6206.00
1554.34,6080.00
1555.86,5997.00
1557.38,5960.00
1558.90,5893.00
1560.41,5793.00
1561.93,5676.00
1563.45,5652.00
1564.96,5637.00
1566.47,5641.00
1567.99,5470.00
1569.50,5477.00
1571.01,5359.00
1572.52,5351.00
1574.03,5350.00
1575.53,5243.00
1577.04,5189.00
1578.55,5170.00
1580.05,5166.00
1581.55,5116.00
1583.06,5129.00
1584.56,5111.00
1586.06,5038.00
1587.56,5003.00
1589.06,4925.00
1590.56,4900.00
1592.05,4944.00
1593.55,4879.00
1595.04,4866.00
1596.54,4824.00
1598.03,4808.00
1599.52,4836.00
1601.01,4830.00
1602.50,4775.00
1603.99,4739.00
1605.48,4777.00
1606.96,4754.00
1608.45,4726.00
1609.93,4806.00
1611.42,4693.00
1612.90,4823.00
1614.38,4709.00
1615.86,4780.00
1617.34,4659.00
1618.82,4661.00
1620.30,4638.00
1621.78,4642.00
1623.25,4522.00
1624.73,4558.00
1626.20,4555.00
1627.67,4461.00
1629.14,4399.00
1630.62,4376.00
1632.08,4345.00
1633.55,3861.00
1635.02,4242.00
1636.49,4197.00
1637.95,4142.00
1639.42,4097.00
1640.88,4093.00
1642.35,4031.00
1643.81,4025.00
1645.27,4022.00
1646.73,4006.00
1648.19,3938.00
1649.64,3963.00
1651.10,3974.00
1652.56,3930.00
1654.01,3868.00
1655.47,3888.00
1656.92,3889.00
1658.37,3785.00
1659.82,3778.00
1661.27,3736.00
1662.72,3775.00
1664.17,3767.00
1665.62,3754.00
1667.06,3765.00
1668.51,3702.00
1669.95,3704.00
1671.39,3700.00
1672.84,3702.00
1674.28,3703.00
1675.72,3696.00
1677.16,3671.00
1678.59,3642.00
1680.03,3649.00
1681.47,3662.00
1682.90,3613.00
1684.34,3626.00
1685.77,3611.00
1687.20,3615.00
1688.63,3569.00
1690.06,3542.00
1691.49,3554.00
1692.92,3559.00
1694.35,3550.00
1695.77,3555.00
1697.20,3475.00
1698.62,3538.00
1700.04,3512.00
1701.47,3502.00
1702.89,3481.00
1704.31,3416.00
1705.73,3422.00
1707.14,3441.00
1708.56,3409.00
1709.98,3367.00
1711.39,3409.00
1712.81,3392.00
1714.22,3356.00
1715.63,3270.00
1717.04,3293.00
1718.45,3248.00
1719.86,3272.00
1721.27,3236.00
1722.68,3276.00
1724.08,3158.00
1725.49,3186.00
1726.89,3154.00
1728.30,3184.00
1729.70,3099.00
1731.10,3120.00
1732.50,3058.00
1733.90,3048.00
1735.30,3099.00
1736.69,3057.00
1738.09,3021.00
1739.49,2981.00
1740.88,2981.00
1742.27,2951.00
1743.67,2969.00
1745.06,2916.00
1746.45,2916.00
1747.84,2924.00
1749.23,2893.00
1750.61,2876.00
1752.00,2894.00
1753.38,2822.00
1754.77,2819.00
1756.15,2783.00
1757.53,2740.00
1758.92,2806.00
1760.30,2767.00
1761.68,2739.00
1763.05,2753.00
1764.43,2680.00
1765.81,2720.00
1767.18,2760.00
1768.56,2699.00
1769.93,2676.00
1771.30,2647.00
1772.67,2624.00
1774.05,2626.00
1775.41,2614.00
1776.78,2551.00
1778.15,2570.00
1779.52,2560.00
1780.88,2595.00
1782.25,2542.00
1783.61,2546.00
1784.97,2542.00
1786.33,2499.00
1787.69,2499.00
1789.05,2460.00
1790.41,2447.00
1791.77,2480.00
1793.13,2439.00
1794.48,2439.00
1795.84,2407.00
1797.19,2398.00
1798.54,2420.00
1799.89,2429.00
1801.25,2389.00
1802.59,2338.00
1803.94,2366.00
1805.29,2313.00
1806.64,2350.00
1807.98,2343.00
1809.33,2351.00
1810.67,2279.00
1812.01,2311.00
1813.36,2330.00
1814.70,2262.00
1816.04,2302.00
1817.37,2241.00
1818.71,2235.00
1820.05,2226.00
1821.38,2228.00
1822.72,2226.00
1824.05,2241.00
1825.39,2223.00
1826.72,2201.00
1828.05,2230.00
1829.38,2192.00
1830.71,2153.00
1832.03,2198.00
1833.36,2121.00
1834.69,2102.00
1836.01,2184.00
1837.34,2116.00
1838.66,2135.00
1839.98,2173.00
1841.30,2111.00
1842.62,2115.00
1843.94,2098.00
1845.26,2129.00
1846.57,2072.00
1847.89,2085.00
1849.20,2070.00
1850.52,2021.00
1851.83,2064.00
1853.14,2055.00
1854.45,2051.00
1855.76,2051.00
1857.07,2019.00
1858.38,2009.00
1859.69,1973.00
1860.99,2026.00
1862.30,1994.00
1863.60,2030.00
1864.90,2045.00
1866.21,2033.00
1867.51,1986.00
1868.81,2000.00
1870.11,1916.00
1871.40,1948.00
1872.70,1929.00
1874.00,1938.00
1875.29,1954.00
1876.59,1945.00
1877.88,1956.00
1879.17,1946.00
1880.46,1914.00
1881.75,1883.00
1883.04,1912.00
1884.33,1923.00
1885.62,1905.00
1886.90,1927.00
1888.19,1890.00
1889.47,1851.00
1890.75,1854.00
1892.04,1846.00
1893.32,1843.00
1894.60,1809.00
1895.88,1821.00
1897.15,1842.00
1898.43,1816.00
1899.71,1786.00
1900.98,1805.00
1902.26,1786.00
1903.53,1773.00
1904.80,1754.00
1906.07,1745.00
1907.34,1769.00
1908.61,1777.00
1909.88,1710.00
1911.15,1741.00
1912.41,1752.00
1913.68,1680.00
1914.94,1704.00
1916.21,1706.00
1917.47,1687.00
1918.73,1672.00
1919.99,1663.00
1921.25,1669.00
1922.51,1657.00
1923.76,1683.00
1925.02,1670.00
1926.28,1664.00
1927.53,1606.00
1928.78,1647.00
1930.04,1592.00
1931.29,1561.00
1932.54,1604.00
1933.79,1623.00
1935.03,1570.00
1936.28,1571.00
1937.53,1554.00
1938.77,1533.00
1940.02,1534.00
1941.26,1499.00
1942.50,1562.00
1943.75,1533.00
1944.99,1558.00
1946.22,1503.00
1947.46,1520.00
1948.70,1529.00
1949.94,1506.00
1951.17,1501.00
1952.41,1490.00
1953.64,1509.00
1954.87,1488.00
1956.10,1508.00
1957.33,1526.00
1958.56,1472.00
1959.79,1472.00
1961.02,1458.00
1962.25,1469.00
1963.47,1455.00
1964.70,1468.00
1965.92,1469.00
1967.14,1464.00
1968.36,1446.00
1969.58,1512.00
1970.80,1433.00
1972.02,1438.00
1973.24,1467.00
1974.46,1421.00
1975.67,1408.00
1976.89,1401.00
1978.10,1395.00
1979.31,1425.00
1980.52,1408.00
1981.73,1379.00
1982.94,1369.00
1984.15,1370.00
1985.36,1350.00
1986.57,1349.00
1987.77,1349.00
1988.98,1352.00
1990.18,1339.00
1991.38,1319.00
1992.58,1313.00
1993.78,1318.00
1994.98,1301.00
1996.18,1288.00
1997.38,1267.00
1998.58,1268.00
1999.77,1276.00
2000.97,1305.00
2002.16,1242.00
